LabVIEW Measurement	
Writer_Version	2
Reader_Version	2
Separator	Tab
Decimal_Separator	.
Multi_Headings	No
X_Columns	No
Time_Pref	Absolute
Operator	bowman-lab
Date	2019/06/12
Time	10:52:28.98046875
***End_of_Header***	
	
Channels	17																	
Samples	1	1	1	1	1	1	1	1	1	1	1	1	1	1	1	1	1	
Date	2019/06/18	2019/06/18	2019/06/18	2019/06/18	2019/06/18	2019/06/18	2019/06/18	2019/06/18	2019/06/18	2019/06/18	2019/06/18	2019/06/18	2019/06/18	2019/06/18	2019/06/18	2019/06/18	2019/06/18	
Time	00:00:30.421875	00:00:30.421875	00:00:30.421875	00:00:30.421875	00:00:30.421875	00:00:30.421875	00:00:30.421875	00:00:30.421875	00:00:30.421875	00:00:30.421875	00:00:30.421875	00:00:30.421875	00:00:30.421875	00:00:30.421875	00:00:30.421875	00:00:30.421875	00:00:30.421875	
X_Dimension	Time	Time	Time	Time	Time	Time	Time	Time	Time	Time	Time	Time	Time	Time	Time	Time	Time	
X0	0.0000000000000000E+0	0.0000000000000000E+0	0.0000000000000000E+0	0.0000000000000000E+0	0.0000000000000000E+0	0.0000000000000000E+0	0.0000000000000000E+0	0.0000000000000000E+0	0.0000000000000000E+0	0.0000000000000000E+0	0.0000000000000000E+0	0.0000000000000000E+0	0.0000000000000000E+0	0.0000000000000000E+0	0.0000000000000000E+0	0.0000000000000000E+0	0.0000000000000000E+0	
Delta_X	1.000000	1.000000	1.000000	1.000000	1.000000	1.000000	1.000000	1.000000	1.000000	1.000000	1.000000	1.000000	1.000000	1.000000	1.000000	1.000000	1.000000	
***End_of_Header***																		
X_Value	Untitled	Untitled 1	Untitled 2	Untitled 3	Untitled 4	Untitled 5	Untitled 6	Untitled 7	Untitled 8	Untitled 9	Untitled 10	Untitled 11	Untitled 12	Untitled 13	Untitled 14	Untitled 15	Untitled 16	Comment
	168.999676	18.704800	3.530830E-7	6.780010E-8	3.006940E-8	3.357190E-9	8.956717	20.195491	3.160150E-7	6.534060E-13	6.034190E-13	5.578500E-13	5.540550E-13	5.195900E-13	4.971340E-13	5.022940E-13	4.501880E-13
	169.000347	18.597300	3.557700E-7	6.759810E-8	2.974910E-8	3.401070E-9	8.746983	19.875539	3.175270E-7	6.721330E-13	6.092560E-13	5.541090E-13	5.397470E-13	5.075930E-13	4.949840E-13	4.808470E-13	4.768700E-13
	169.001019	18.651100	3.547490E-7	6.841380E-8	3.025100E-8	3.357880E-9	9.008958	20.374105	3.147720E-7	6.388940E-13	6.301760E-13	5.666860E-13	5.283410E-13	5.259010E-13	5.261480E-13	4.789660E-13	4.527360E-13
	169.001701	18.973500	3.520610E-7	6.774970E-8	3.025040E-8	3.406040E-9	8.881399	19.891046	3.162830E-7	6.344000E-13	6.121690E-13	5.752320E-13	5.670840E-13	5.215250E-13	5.206010E-13	5.485190E-13	5.584730E-13
	169.002373	18.597300	3.543190E-7	6.737510E-8	2.963940E-8	3.380640E-9	8.767393	19.929688	3.155120E-7	7.443410E-13	7.668400E-13	6.588240E-13	6.022040E-13	5.880680E-13	6.130510E-13	6.210060E-13	6.344430E-13
	169.003044	18.758600	3.534050E-7	6.806150E-8	3.013420E-8	3.331060E-9	9.046430	20.432385	3.132940E-7	6.637800E-13	7.163580E-13	7.017920E-13	6.637050E-13	6.030430E-13	5.125280E-13	4.769020E-13	4.309140E-13
	169.003727	18.597300	3.524910E-7	6.748230E-8	3.030650E-8	3.402770E-9	8.906420	19.831578	3.162180E-7	6.836890E-13	6.277140E-13	5.022830E-13	5.453040E-13	5.510660E-13	4.688500E-13	5.156770E-13	4.493710E-13
	169.004398	18.866000	3.549640E-7	6.792980E-8	2.974150E-8	3.405050E-9	8.734527	19.949722	3.146720E-7	5.491740E-13	5.563880E-13	4.600460E-13	4.390620E-13	4.257540E-13	3.879990E-13	4.477370E-13	4.451250E-13
	169.005081	18.758600	3.545340E-7	6.815360E-8	2.969330E-8	3.357060E-9	8.845031	20.301573	3.119500E-7	6.188770E-13	5.802310E-13	5.223960E-13	5.037020E-13	5.116460E-13	4.654430E-13	5.002190E-13	5.039600E-13
	169.005752	18.758600	3.535660E-7	6.749300E-8	2.964940E-8	3.399180E-9	8.722515	19.855671	3.157460E-7	6.682520E-13	6.439890E-13	5.952600E-13	5.814460E-13	5.090550E-13	5.171180E-13	5.117000E-13	5.327380E-13
	169.006424	18.758600	3.560390E-7	6.770140E-8	2.929700E-8	3.375150E-9	8.680207	20.058783	3.146720E-7	6.664680E-13	6.652210E-13	5.859500E-13	5.402630E-13	5.308030E-13	5.432190E-13	5.605260E-13	5.656430E-13
	169.007106	18.812300	3.552860E-7	6.800970E-8	3.010730E-8	3.332840E-9	9.033527	20.405930	3.130930E-7	6.956000E-13	6.341850E-13	6.030430E-13	5.856600E-13	5.071850E-13	5.293190E-13	5.630530E-13	5.291900E-13
	169.007778	18.651100	3.547490E-7	6.689650E-8	3.010190E-8	3.371660E-9	8.927917	19.840820	3.174270E-7	6.657580E-13	6.123090E-13	5.261590E-13	5.445520E-13	5.177410E-13	5.214070E-13	5.097220E-13	5.338450E-13
	169.008449	18.704800	3.571680E-7	6.797340E-8	3.021070E-8	3.373780E-9	8.954555	20.147550	3.168890E-7	6.588670E-13	6.112230E-13	5.691050E-13	5.322540E-13	5.000900E-13	4.941340E-13	5.218480E-13	4.615190E-13
	169.009132	18.973500	3.565230E-7	6.812700E-8	3.076040E-8	3.355480E-9	9.167213	20.303206	3.160490E-7	6.723480E-13	6.066870E-13	5.435740E-13	5.155700E-13	5.221060E-13	4.970370E-13	4.515860E-13	4.821270E-13
	169.009803	19.027300	3.554480E-7	6.741580E-8	3.055070E-8	3.383220E-9	9.030066	19.926520	3.187030E-7	6.398510E-13	5.969580E-13	5.169570E-13	5.428100E-13	5.075610E-13	4.838140E-13	4.570470E-13	4.595840E-13
	169.010486	18.704800	3.565760E-7	6.777090E-8	3.014800E-8	3.351120E-9	8.996395	20.223358	3.166880E-7	6.414520E-13	5.856380E-13	5.305340E-13	5.240840E-13	4.751070E-13	4.883400E-13	4.257110E-13	4.556600E-13
	169.011157	18.973500	3.549100E-7	6.775380E-8	3.015760E-8	3.355400E-9	8.987781	20.192466	3.161170E-7	6.345720E-13	5.678150E-13	5.522810E-13	5.063140E-13	5.018210E-13	4.725160E-13	4.705170E-13	4.796110E-13
	169.011829	18.758600	3.541580E-7	6.720280E-8	2.984130E-8	3.390570E-9	8.801264	19.820502	3.185340E-7	6.536860E-13	5.898420E-13	5.629450E-13	5.238690E-13	5.156340E-13	5.040780E-13	5.175800E-13	5.232240E-13
	169.012512	18.758600	3.556090E-7	6.796200E-8	2.988190E-8	3.354340E-9	8.908429	20.260916	3.154450E-7	6.464080E-13	6.485040E-13	5.729210E-13	5.408320E-13	5.498620E-13	4.939410E-13	5.103020E-13	5.189780E-13
	169.013183	18.973500	3.541580E-7	6.764630E-8	3.039380E-8	3.372240E-9	9.012941	20.059753	3.153770E-7	6.604580E-13	6.298320E-13	6.019140E-13	5.940560E-13	5.227940E-13	5.284160E-13	5.335650E-13	5.393700E-13
	169.013854	18.704800	3.548560E-7	6.734830E-8	3.024070E-8	3.387710E-9	8.926591	19.880185	3.182670E-7	6.873010E-13	6.336370E-13	5.784570E-13	5.963670E-13	5.311570E-13	5.149250E-13	5.682340E-13	5.442290E-13
	169.014537	18.758600	3.548030E-7	6.772390E-8	3.021390E-8	3.310500E-9	9.126688	20.457303	3.143350E-7	6.588030E-13	6.824640E-13	5.566890E-13	6.468700E-13	6.365400E-13	5.069700E-13	4.803210E-13	4.962520E-13
	169.015208	18.973500	3.544800E-7	6.728140E-8	3.049070E-8	3.371680E-9	9.043177	19.954859	3.158810E-7	7.008680E-13	6.207480E-13	5.790810E-13	5.732330E-13	5.489700E-13	5.334900E-13	5.572800E-13	5.038850E-13
	169.015880	18.919800	3.569530E-7	6.697820E-8	3.021510E-8	3.381050E-9	8.936603	19.809882	3.177960E-7	6.804750E-13	6.183940E-13	5.843590E-13	5.718780E-13	5.571940E-13	5.641600E-13	5.624080E-13	5.179560E-13
	169.016562	18.812300	3.568450E-7	6.763520E-8	3.071430E-8	3.329190E-9	9.225758	20.315813	3.159150E-7	6.689400E-13	6.494610E-13	5.616340E-13	5.490240E-13	5.719540E-13	5.465510E-13	4.918230E-13	5.188060E-13
	169.017234	19.027300	3.562000E-7	6.690120E-8	3.101600E-8	3.358520E-9	9.235020	19.919846	3.182670E-7	6.650490E-13	5.980870E-13	5.739530E-13	5.500020E-13	5.102060E-13	5.188270E-13	5.080990E-13	5.284050E-13
	169.017917	19.081000	3.584040E-7	6.711100E-8	3.084810E-8	3.349200E-9	9.210588	20.037920	3.199460E-7	6.298320E-13	6.063750E-13	5.854560E-13	5.323720E-13	4.832120E-13	5.212890E-13	5.037450E-13	5.039280E-13
	169.018588	18.866000	3.571680E-7	6.766670E-8	3.140000E-8	3.317640E-9	9.464559	20.396035	3.171910E-7	6.741430E-13	6.190920E-13	5.731580E-13	5.061960E-13	5.333180E-13	5.213100E-13	4.833740E-13	4.813100E-13
	169.019259	18.919800	3.561460E-7	6.696830E-8	3.158280E-8	3.343820E-9	9.445126	20.027484	3.209540E-7	6.507300E-13	6.266500E-13	5.794680E-13	5.258580E-13	5.281150E-13	5.040460E-13	4.942310E-13	4.874690E-13
	169.019942	19.027300	3.584040E-7	6.695150E-8	3.119670E-8	3.335880E-9	9.351865	20.070116	3.199110E-7	6.529440E-13	5.982050E-13	5.646440E-13	5.736950E-13	4.939620E-13	4.948120E-13	5.293620E-13	4.998320E-13
	169.020613	18.973500	3.565230E-7	6.737620E-8	3.173960E-8	3.294670E-9	9.633620	20.450060	3.175270E-7	6.672520E-13	6.103310E-13	5.997750E-13	5.672770E-13	5.555810E-13	5.639880E-13	5.692770E-13	5.733510E-13
	169.021285	19.188500	3.553940E-7	6.660790E-8	3.184000E-8	3.350030E-9	9.504392	19.882777	3.201140E-7	7.241740E-13	7.247330E-13	6.739170E-13	6.089440E-13	5.640200E-13	6.334540E-13	5.294910E-13	5.162790E-13
	169.021968	18.973500	3.578130E-7	6.665380E-8	3.133120E-8	3.332810E-9	9.400836	19.999280	3.183000E-7	7.739890E-13	7.273450E-13	6.925360E-13	6.448600E-13	4.790520E-13	4.822020E-13	5.418000E-13	4.597340E-13
	169.022639	18.919800	3.567910E-7	6.718730E-8	3.211990E-8	3.304500E-9	9.720048	20.332062	3.166200E-7	6.800340E-13	5.963670E-13	5.033360E-13	4.630020E-13	5.453260E-13	4.543380E-13	4.883400E-13	4.669910E-13
	169.023322	18.758600	3.568450E-7	6.659950E-8	3.198880E-8	3.351990E-9	9.543227	19.868645	3.199460E-7	5.837250E-13	5.616340E-13	4.932420E-13	5.024440E-13	4.646690E-13	4.639160E-13	4.465760E-13	4.457920E-13
	169.023993	18.919800	3.595330E-7	6.708110E-8	3.155860E-8	3.305600E-9	9.547011	20.293169	3.186690E-7	7.041790E-13	6.470850E-13	6.293590E-13	6.115890E-13	5.431440E-13	5.109580E-13	5.264810E-13	5.121730E-13
	169.024664	19.081000	3.580810E-7	6.701850E-8	3.186890E-8	3.353430E-9	9.503374	19.985060	3.169900E-7	6.597060E-13	6.589000E-13	5.978070E-13	5.752750E-13	5.239010E-13	5.209450E-13	5.219660E-13	5.219660E-13
	169.025347	18.919800	3.575440E-7	6.628340E-8	3.160190E-8	3.335480E-9	9.474468	19.872222	3.203830E-7	7.019210E-13	6.536000E-13	5.705240E-13	5.621600E-13	5.377150E-13	5.053140E-13	5.277390E-13	4.991980E-13
	169.026019	18.866000	3.606610E-7	6.701570E-8	3.157530E-8	3.314440E-9	9.526587	20.219313	3.189040E-7	6.712730E-13	6.349060E-13	5.485290E-13	5.429290E-13	5.444010E-13	5.197300E-13	5.187950E-13	4.760960E-13
	169.026690	19.027300	3.590490E-7	6.696930E-8	3.210980E-8	3.298120E-9	9.735789	20.305295	3.184680E-7	6.499560E-13	6.126530E-13	5.885300E-13	5.154950E-13	5.620310E-13	5.289210E-13	5.095710E-13	4.914900E-13
	169.027373	19.134800	3.586730E-7	6.621880E-8	3.198860E-8	3.308130E-9	9.669693	20.016988	3.222640E-7	6.365400E-13	6.133300E-13	5.608600E-13	5.423270E-13	5.299100E-13	5.045730E-13	5.140860E-13	4.966820E-13
	169.028044	19.081000	3.603390E-7	6.707550E-8	3.203080E-8	3.266290E-9	9.806478	20.535684	3.204500E-7	6.402480E-13	6.122120E-13	5.532700E-13	5.382420E-13	5.199240E-13	5.048740E-13	5.007130E-13	5.139680E-13
	169.028727	19.242300	3.585110E-7	6.657970E-8	3.249210E-8	3.271750E-9	9.931107	20.349874	3.193070E-7	6.819370E-13	6.202960E-13	6.094820E-13	5.637410E-13	5.108400E-13	5.387900E-13	5.047340E-13	5.218590E-13
	169.029398	19.027300	3.588340E-7	6.592360E-8	3.220800E-8	3.312460E-9	9.723287	19.901704	3.211220E-7	6.464620E-13	6.376580E-13	5.823060E-13	5.430900E-13	5.397360E-13	5.684170E-13	5.387360E-13	4.847500E-13
	169.030069	19.134800	3.592100E-7	6.653900E-8	3.222940E-8	3.230040E-9	9.978019	20.600054	3.183330E-7	6.723800E-13	6.535890E-13	5.940990E-13	5.699760E-13	5.601720E-13	5.266100E-13	5.400260E-13	5.370160E-13
	169.030752	19.027300	3.585650E-7	6.609150E-8	3.261810E-8	3.267620E-9	9.982219	20.226189	3.183670E-7	6.926550E-13	6.270690E-13	5.722760E-13	5.458310E-13	5.242880E-13	5.202680E-13	5.179560E-13	4.871250E-13
	169.031424	18.973500	3.607690E-7	6.566020E-8	3.227110E-8	3.297770E-9	9.785734	19.910485	3.215580E-7	6.765190E-13	6.425270E-13	5.796080E-13	5.589460E-13	5.712550E-13	5.282980E-13	5.073460E-13	5.582900E-13
	169.032095	19.027300	3.604460E-7	6.672580E-8	3.279310E-8	3.262780E-9	10.050662	20.450597	3.198120E-7	6.586630E-13	6.248870E-13	5.996350E-13	5.452830E-13	5.474440E-13	4.901350E-13	5.049920E-13	5.100230E-13
	169.032778	19.134800	3.600160E-7	6.613860E-8	3.292100E-8	3.322560E-9	9.908324	19.905916	3.223980E-7	6.702620E-13	6.185980E-13	5.450460E-13	5.465940E-13	5.539370E-13	4.811910E-13	4.841370E-13	5.029490E-13
	169.033449	19.134800	3.618980E-7	6.597530E-8	3.255090E-8	3.318440E-9	9.809097	19.881420	3.229020E-7	6.401410E-13	6.220380E-13	5.258040E-13	5.457990E-13	5.022830E-13	4.973490E-13	4.671090E-13	4.491780E-13
	169.034132	19.296000	3.609300E-7	6.643930E-8	3.280830E-8	3.253320E-9	10.084560	20.422000	3.200470E-7	6.530090E-13	5.755120E-13	5.143340E-13	5.350600E-13	4.961020E-13	4.932210E-13	4.783100E-13	4.585520E-13
	169.034803	19.134800	3.593710E-7	6.579450E-8	3.286530E-8	3.298240E-9	9.964496	19.948366	3.229350E-7	6.214790E-13	5.909490E-13	5.253850E-13	4.831590E-13	5.109040E-13	4.709790E-13	5.091740E-13	4.619380E-13
	169.035475	19.403500	3.620050E-7	6.553990E-8	3.230560E-8	3.243800E-9	9.959184	20.204667	3.231710E-7	6.537500E-13	5.736840E-13	5.674390E-13	5.281580E-13	4.724730E-13	5.221490E-13	4.344610E-13	4.694740E-13
	169.036157	19.081000	3.605540E-7	6.600980E-8	3.284920E-8	3.232010E-9	10.163706	20.423761	3.208870E-7	6.374000E-13	5.685780E-13	5.486800E-13	4.826960E-13	4.785150E-13	4.949840E-13	4.251300E-13	4.745480E-13
	169.036829	19.349800	3.597480E-7	6.575590E-8	3.308300E-8	3.280860E-9	10.083637	20.042276	3.253880E-7	6.229090E-13	5.817250E-13	5.696750E-13	4.807400E-13	4.807080E-13	5.140110E-13	4.894040E-13	4.586920E-13
	169.037500	19.296000	3.615750E-7	6.566290E-8	3.252070E-8	3.285140E-9	9.899335	19.987854	3.236420E-7	6.259510E-13	5.892180E-13	5.544100E-13	5.260400E-13	4.974350E-13	5.227720E-13	4.780950E-13	4.842440E-13
	169.038183	19.349800	3.599090E-7	6.607280E-8	3.302590E-8	3.221260E-9	10.252479	20.511477	3.205500E-7	6.445160E-13	6.212960E-13	5.606550E-13	5.351780E-13	5.203860E-13	5.019820E-13	5.086360E-13	5.088190E-13
	169.038854	19.403500	3.589410E-7	6.529270E-8	3.300000E-8	3.273260E-9	10.081692	19.947300	3.237420E-7	6.652100E-13	6.239410E-13	5.654820E-13	5.355760E-13	5.217510E-13	5.307920E-13	5.362100E-13	5.165800E-13
	169.039537	19.296000	3.607150E-7	6.565070E-8	3.260390E-8	3.238780E-9	10.066723	20.270194	3.221300E-7	6.611890E-13	6.656290E-13	5.587850E-13	5.043900E-13	5.526900E-13	6.441610E-13	6.106970E-13	6.162540E-13
	169.040208	19.457300	3.606080E-7	6.556310E-8	3.292610E-8	3.187300E-9	10.330405	20.570106	3.189390E-7	7.519410E-13	7.375570E-13	6.427420E-13	6.865270E-13	6.532670E-13	5.767270E-13	6.091270E-13	6.305200E-13
	169.040880	19.349800	3.603930E-7	6.482360E-8	3.278470E-8	3.253160E-9	10.077801	19.926349	3.223650E-7	7.597020E-13	7.304620E-13	6.779590E-13	5.948620E-13	5.732650E-13	5.391450E-13	5.496900E-13	5.412410E-13
	169.041562	19.134800	3.631340E-7	6.559100E-8	3.269130E-8	3.236360E-9	10.101256	20.266905	3.228340E-7	6.659620E-13	6.486550E-13	5.464440E-13	5.445950E-13	5.581830E-13	5.115490E-13	5.321570E-13	5.277710E-13
	169.042234	19.511000	3.622740E-7	6.599410E-8	3.337500E-8	3.241960E-9	10.294698	20.356235	3.222970E-7	6.675750E-13	6.358840E-13	5.787800E-13	5.229010E-13	5.185480E-13	5.029280E-13	4.683340E-13	4.887590E-13
	169.042905	19.296000	3.627040E-7	6.511560E-8	3.300950E-8	3.260980E-9	10.122571	19.968108	3.253210E-7	6.499990E-13	5.953030E-13	5.257820E-13	5.106140E-13	5.135600E-13	4.791060E-13	4.864800E-13	4.616800E-13
	169.043588	19.511000	3.637790E-7	6.562260E-8	3.265330E-8	3.211780E-9	10.166730	20.431848	3.236420E-7	6.281120E-13	6.046550E-13	5.276530E-13	5.111410E-13	4.726670E-13	4.717310E-13	4.359550E-13	4.406320E-13
	169.044259	19.726000	3.630800E-7	6.549490E-8	3.315530E-8	3.221160E-9	10.292969	20.332706	3.234050E-7	6.233280E-13	5.895620E-13	5.334150E-13	5.149030E-13	4.771710E-13	4.566280E-13	4.559500E-13	4.591970E-13
	169.044942	19.564800	3.629190E-7	6.479380E-8	3.281900E-8	3.261890E-9	10.061345	19.863883	3.264290E-7	6.083420E-13	5.785430E-13	5.369520E-13	5.038950E-13	5.187300E-13	5.035300E-13	4.764180E-13	4.938230E-13
	169.045613	19.457300	3.645310E-7	6.559230E-8	3.282430E-8	3.188640E-9	10.294138	20.570619	3.243800E-7	6.251450E-13	5.605050E-13	5.419930E-13	5.160110E-13	5.035080E-13	4.817070E-13	4.760210E-13	4.915330E-13
	169.046285	19.726000	3.626500E-7	6.516000E-8	3.312400E-8	3.213440E-9	10.307957	20.277335	3.247830E-7	6.212530E-13	5.937010E-13	5.477340E-13	5.044650E-13	4.841480E-13	4.597880E-13	4.462970E-13	4.447380E-13
	169.046968	19.779800	3.642630E-7	6.491070E-8	3.281430E-8	3.252720E-9	10.088265	19.955822	3.270340E-7	6.424200E-13	5.835310E-13	5.588820E-13	4.916620E-13	4.742360E-13	4.786010E-13	4.640240E-13	4.723330E-13
	169.047639	19.564800	3.640480E-7	6.572530E-8	3.299230E-8	3.191500E-9	10.337553	20.593859	3.244470E-7	6.529660E-13	6.143190E-13	5.464760E-13	5.453260E-13	5.234710E-13	5.211810E-13	5.344040E-13	5.265350E-13
	169.048310	19.457300	3.623810E-7	6.515430E-8	3.317200E-8	3.205100E-9	10.349755	20.328320	3.246490E-7	6.325410E-13	6.306160E-13	5.715450E-13	5.815000E-13	4.944460E-13	5.297380E-13	4.881140E-13	5.103560E-13
	169.048993	19.457300	3.641010E-7	6.475480E-8	3.261980E-8	3.219890E-9	10.130719	20.110873	3.251860E-7	6.745950E-13	5.920240E-13	6.055470E-13	5.263520E-13	5.515500E-13	5.395960E-13	4.865880E-13	5.777260E-13
	169.049664	19.511000	3.635640E-7	6.536050E-8	3.302930E-8	3.159600E-9	10.453633	20.686321	3.223980E-7	7.810410E-13	6.471500E-13	6.944610E-13	6.307450E-13	5.469920E-13	6.394640E-13	5.863370E-13	6.095360E-13
	169.050347	19.672300	3.641010E-7	6.478670E-8	3.310450E-8	3.205010E-9	10.328985	20.214196	3.247830E-7	7.578210E-13	7.498770E-13	7.391050E-13	6.871830E-13	6.564490E-13	6.478700E-13	4.389010E-13	4.614330E-13
	169.051019	19.618500	3.663050E-7	6.494960E-8	3.259330E-8	3.232720E-9	10.082315	20.091316	3.257240E-7	6.988140E-13	6.313150E-13	6.241660E-13	5.384240E-13	5.147640E-13	5.281580E-13	5.331570E-13	5.196120E-13
	169.051690	19.457300	3.658750E-7	6.555400E-8	3.312370E-8	3.195080E-9	10.367096	20.517170	3.240100E-7	6.543310E-13	6.124600E-13	5.597850E-13	5.568280E-13	5.478310E-13	5.353500E-13	5.126350E-13	5.254810E-13
	169.052373	19.726000	3.661440E-7	6.470580E-8	3.313030E-8	3.230490E-9	10.255503	20.029717	3.270680E-7	6.808190E-13	6.208120E-13	5.646330E-13	5.222030E-13	5.413380E-13	4.983480E-13	5.198380E-13	5.126350E-13
	169.053044	19.564800	3.680790E-7	6.499370E-8	3.283880E-8	3.214260E-9	10.216597	20.220424	3.272700E-7	6.541480E-13	6.099760E-13	5.958940E-13	5.687720E-13	4.864160E-13	4.980690E-13	4.932420E-13	4.911140E-13
	169.053715	19.457300	3.665740E-7	6.536150E-8	3.330710E-8	3.179710E-9	10.474886	20.555805	3.248830E-7	6.497840E-13	5.768560E-13	5.327700E-13	5.089590E-13	5.315440E-13	4.681730E-13	4.909520E-13	4.946070E-13
	169.054398	19.726000	3.659290E-7	6.439410E-8	3.323050E-8	3.214990E-9	10.336113	20.029331	3.284790E-7	6.536640E-13	5.931420E-13	5.427460E-13	5.218050E-13	4.791600E-13	4.977360E-13	5.269760E-13	4.955750E-13
	169.055069	19.887300	3.684010E-7	6.472120E-8	3.272160E-8	3.171950E-9	10.315926	20.404231	3.274710E-7	6.171250E-13	6.045910E-13	5.641490E-13	5.154840E-13	4.746980E-13	4.414380E-13	4.580570E-13	4.428350E-13
	169.055752	19.779800	3.669500E-7	6.585170E-8	3.384630E-8	3.201030E-9	10.573565	20.572035	3.271690E-7	6.060630E-13	5.505290E-13	5.169780E-13	4.995200E-13	4.500060E-13	5.080230E-13	4.443190E-13	4.556060E-13
	169.056424	19.726000	3.665740E-7	6.557390E-8	3.375860E-8	3.265540E-9	10.337831	20.080569	3.311990E-7	6.127500E-13	5.754370E-13	5.659230E-13	5.036800E-13	4.998210E-13	4.805250E-13	4.777940E-13	4.736340E-13
	169.057095	19.779800	3.678640E-7	6.522660E-8	3.299730E-8	3.166180E-9	10.421802	20.601040	3.274360E-7	6.570180E-13	6.140720E-13	5.689110E-13	5.347050E-13	5.201170E-13	5.142690E-13	4.638840E-13	4.979940E-13
	169.057778	19.994800	3.656600E-7	6.511720E-8	3.326990E-8	3.183870E-9	10.449516	20.452217	3.252880E-7	6.531160E-13	5.792210E-13	5.735450E-13	5.500670E-13	5.378550E-13	5.315770E-13	5.136780E-13	4.762360E-13
	169.058449	19.779800	3.648540E-7	6.403790E-8	3.284680E-8	3.205950E-9	10.245575	19.974703	3.276390E-7	6.459350E-13	6.094600E-13	5.704270E-13	5.893690E-13	5.402730E-13	4.916620E-13	4.692270E-13	4.183680E-13
	169.059120	19.672300	3.675410E-7	6.468390E-8	3.260100E-8	3.150040E-9	10.349392	20.534311	3.252530E-7	7.898350E-13	6.605230E-13	4.850610E-13	5.297710E-13	4.617770E-13	4.337090E-13	4.257210E-13	4.230120E-13
	169.059803	19.779800	3.668430E-7	6.469070E-8	3.306110E-8	3.173710E-9	10.417177	20.383305	3.246490E-7	5.786940E-13	5.797370E-13	5.013050E-13	5.067230E-13	4.406640E-13	4.514570E-13	4.088760E-13	4.604870E-13
	169.060475	19.887300	3.672190E-7	6.417000E-8	3.305620E-8	3.192970E-9	10.352806	20.097276	3.275380E-7	6.047840E-13	5.415100E-13	5.138710E-13	4.637980E-13	4.692910E-13	4.449960E-13	4.693130E-13	4.352140E-13
	169.061157	19.726000	3.689930E-7	6.504300E-8	3.339510E-8	3.189350E-9	10.470817	20.393811	3.266310E-7	5.836930E-13	5.487550E-13	4.940910E-13	4.805250E-13	4.996920E-13	4.879210E-13	4.664640E-13	4.391590E-13
	169.061829	19.833500	3.691000E-7	6.458250E-8	3.473410E-8	3.168310E-9	10.962974	20.383896	3.268670E-7	6.081700E-13	5.432190E-13	5.358550E-13	5.052390E-13	4.811160E-13	4.786220E-13	4.809010E-13	5.020360E-13
	169.062500	19.564800	3.692610E-7	6.427550E-8	3.545840E-8	3.207310E-9	11.055495	20.040314	3.313000E-7	6.061490E-13	5.423590E-13	5.099690E-13	4.779660E-13	5.345650E-13	5.222240E-13	4.632710E-13	4.557460E-13
	169.063183	19.726000	3.708200E-7	6.529300E-8	3.617600E-8	3.169760E-9	11.412851	20.598720	3.306960E-7	6.203820E-13	6.234350E-13	5.410470E-13	5.467660E-13	5.876700E-13	5.151610E-13	4.942850E-13	5.107540E-13
	169.063854	19.887300	3.697450E-7	6.457510E-8	3.646820E-8	3.175130E-9	11.485577	20.337781	3.297890E-7	7.381270E-13	7.619600E-13	6.393670E-13	6.604690E-13	5.516470E-13	6.150930E-13	5.973020E-13	5.916580E-13
	169.064525	19.941000	3.708740E-7	6.421900E-8	3.596400E-8	3.206930E-9	11.214464	20.025071	3.319050E-7	6.794540E-13	6.205220E-13	5.745340E-13	5.860900E-13	5.327910E-13	5.181820E-13	5.488630E-13	4.823310E-13
	169.065208	19.941000	3.702830E-7	6.488780E-8	3.596530E-8	3.143570E-9	11.440910	20.641436	3.296210E-7	6.918700E-13	6.407320E-13	5.716740E-13	5.459920E-13	5.302440E-13	5.235570E-13	5.179350E-13	5.144410E-13
	169.065880	19.726000	3.690460E-7	6.440280E-8	3.569870E-8	3.204200E-9	11.141221	20.099494	3.316360E-7	6.701550E-13	6.062030E-13	5.673960E-13	5.928300E-13	5.288890E-13	5.368660E-13	5.231700E-13	4.901460E-13
	169.066551	19.941000	3.706590E-7	6.429230E-8	3.511850E-8	3.184220E-9	11.028918	20.190910	3.317030E-7	6.857640E-13	6.595660E-13	5.682230E-13	5.502280E-13	5.327810E-13	5.264490E-13	4.980040E-13	5.276740E-13
	169.067234	20.048500	3.695300E-7	6.482770E-8	3.578360E-8	3.162900E-9	11.313541	20.496285	3.286800E-7	6.834530E-13	6.225320E-13	5.876590E-13	5.777590E-13	5.406600E-13	5.439610E-13	5.044330E-13	5.398540E-13
	169.067905	19.833500	3.684550E-7	6.414310E-8	3.574430E-8	3.194410E-9	11.189641	20.079796	3.300570E-7	6.747770E-13	6.475800E-13	5.816180E-13	5.504970E-13	4.955000E-13	4.956720E-13	4.864160E-13	4.352890E-13
	169.068588	19.941000	3.702290E-7	6.404230E-8	3.522670E-8	3.149980E-9	11.183150	20.331018	3.299230E-7	8.060240E-13	7.687970E-13	6.928270E-13	7.189380E-13	6.912030E-13	6.878920E-13	6.149000E-13	6.440650E-13
	169.069259	19.779800	3.704440E-7	6.437580E-8	3.566950E-8	3.134310E-9	11.380336	20.539066	3.279070E-7	8.333080E-13	7.848900E-13	7.987360E-13	7.356870E-13	6.774760E-13	6.737020E-13	6.258650E-13	5.987000E-13
	169.069931	19.994800	3.697990E-7	6.366240E-8	3.594190E-8	3.178060E-9	11.309384	20.031843	3.310320E-7	7.012010E-13	6.328850E-13	5.873910E-13	5.694380E-13	5.315770E-13	5.298240E-13	4.910490E-13	4.963270E-13
	169.070613	19.887300	3.721100E-7	6.432470E-8	3.553530E-8	3.177680E-9	11.182781	20.242661	3.318720E-7	7.016310E-13	6.410870E-13	5.779090E-13	5.754150E-13	5.154840E-13	5.339090E-13	5.347370E-13	4.989930E-13
	169.071285	19.941000	3.718950E-7	6.458960E-8	3.560790E-8	3.123550E-9	11.399818	20.678267	3.297220E-7	7.060280E-13	6.300040E-13	5.951950E-13	5.830480E-13	5.341350E-13	5.270620E-13	5.080770E-13	5.042500E-13
	169.071956	20.048500	3.711960E-7	6.383500E-8	3.505060E-8	3.165820E-9	11.071571	20.163812	3.322070E-7	6.632750E-13	6.489560E-13	6.005490E-13	5.507220E-13	5.394350E-13	4.954780E-13	5.029170E-13	5.233640E-13
	169.072639	20.102300	3.725940E-7	6.447900E-8	3.566510E-8	3.147850E-9	11.329987	20.483505	3.337860E-7	6.584700E-13	6.393670E-13	5.830480E-13	5.434770E-13	5.275020E-13	5.132480E-13	5.298670E-13	4.862870E-13
	169.073310	20.209800	3.717880E-7	6.422300E-8	3.692610E-8	3.124070E-9	11.819870	20.557478	3.322070E-7	6.603720E-13	6.170820E-13	5.810050E-13	5.687820E-13	5.262340E-13	5.235890E-13	4.842440E-13	4.938550E-13
	169.073981	20.156000	3.708200E-7	6.353540E-8	3.717580E-8	3.167940E-9	11.735008	20.055746	3.359700E-7	6.344430E-13	5.843480E-13	5.755010E-13	4.969620E-13	5.337800E-13	5.192360E-13	5.080230E-13	5.061210E-13
	169.074664	20.102300	3.714110E-7	6.442270E-8	3.723550E-8	3.142960E-9	11.847271	20.497461	3.350640E-7	6.433120E-13	6.146850E-13	5.502390E-13	5.513350E-13	5.071530E-13	4.631640E-13	4.926830E-13	4.852010E-13
	169.075336	20.102300	3.695300E-7	6.440770E-8	3.799150E-8	3.135110E-9	12.118076	20.544000	3.336850E-7	6.732290E-13	5.784570E-13	5.479270E-13	5.396070E-13	5.303830E-13	5.226760E-13	4.632070E-13	4.819440E-13
	169.076019	19.994800	3.688850E-7	6.365800E-8	3.774440E-8	3.190330E-9	11.830876	19.953422	3.359030E-7	6.550510E-13	6.237470E-13	5.877990E-13	5.483250E-13	5.223320E-13	5.132910E-13	5.185910E-13	5.060240E-13
	169.076690	19.994800	3.691000E-7	6.434430E-8	3.743980E-8	3.144140E-9	11.907803	20.464833	3.326780E-7	6.679620E-13	6.121590E-13	5.780700E-13	5.570650E-13	5.141400E-13	5.018960E-13	5.430580E-13	5.131830E-13
	169.077361	20.156000	3.673260E-7	6.405850E-8	3.768640E-8	3.147400E-9	11.973820	20.352831	3.312000E-7	6.452580E-13	6.246820E-13	5.698040E-13	5.810700E-13	5.112810E-13	4.963700E-13	4.779770E-13	4.629810E-13
	169.078044	20.048500	3.679180E-7	6.357110E-8	3.713610E-8	3.184100E-9	11.662982	19.965171	3.334830E-7	7.989180E-13	6.775080E-13	6.402590E-13	7.334830E-13	6.876670E-13	4.727420E-13	4.931450E-13	5.341460E-13
	169.078715	19.887300	3.684010E-7	6.456130E-8	3.735610E-8	3.127950E-9	11.942678	20.640132	3.308970E-7	5.617200E-13	4.796330E-13	4.375790E-13	5.058730E-13	4.844490E-13	3.905150E-13	4.482100E-13	4.154870E-13
	169.079387	19.887300	3.692080E-7	6.416090E-8	3.779150E-8	3.159580E-9	11.960925	20.306781	3.317380E-7	5.622250E-13	5.296310E-13	5.112810E-13	5.014340E-13	4.504360E-13	4.352030E-13	4.358910E-13	4.539620E-13
	169.080069	20.048500	3.692610E-7	6.372790E-8	3.744640E-8	3.194460E-9	11.722294	19.949506	3.330140E-7	5.809840E-13	5.685780E-13	5.239760E-13	4.534990E-13	4.431690E-13	4.301070E-13	4.360520E-13	4.455120E-13
	169.080741	20.102300	3.705510E-7	6.426130E-8	3.786500E-8	3.134000E-9	12.082004	20.504563	3.302590E-7	6.458280E-13	4.826750E-13	4.107790E-13	4.048980E-13	3.953530E-13	3.985130E-13	3.706490E-13	4.016410E-13
	169.081400	20.048500	3.702290E-7	6.375970E-8	3.816510E-8	3.194910E-9	11.945595	19.956650	3.339210E-7	6.036980E-13	6.169420E-13	5.709860E-13	7.294090E-13	5.149790E-13	5.041100E-13	4.752040E-13	5.077440E-13
	169.082072	19.779800	3.711960E-7	6.411220E-8	3.779320E-8	3.182940E-9	11.873677	20.142447	3.337860E-7	6.712190E-13	6.388940E-13	7.051030E-13	5.641060E-13	5.620850E-13	5.625040E-13	5.125600E-13	5.084960E-13
	169.082743	19.994800	3.716800E-7	6.451730E-8	3.858200E-8	3.146850E-9	12.260514	20.502185	3.323080E-7	6.820340E-13	7.289040E-13	6.561370E-13	6.034080E-13	5.200100E-13	5.635470E-13	5.176120E-13	5.904540E-13
	169.083426	20.102300	3.702290E-7	6.356160E-8	3.827260E-8	3.173750E-9	12.059110	20.027286	3.352980E-7	6.719290E-13	6.401730E-13	5.797800E-13	5.479600E-13	5.448100E-13	4.895010E-13	5.150110E-13	5.145380E-13
	169.084097	20.102300	3.711430E-7	6.442260E-8	3.803070E-8	3.168220E-9	12.003807	20.334005	3.346260E-7	6.980190E-13	6.400870E-13	5.723730E-13	5.502170E-13	5.509910E-13	5.292120E-13	4.998210E-13	5.502710E-13
	169.084780	20.209800	3.707660E-7	6.466780E-8	3.893100E-8	3.139700E-9	12.399592	20.596809	3.339210E-7	6.891610E-13	6.396360E-13	5.742860E-13	5.611180E-13	5.363280E-13	5.303940E-13	5.227290E-13	5.216110E-13
	169.085451	20.156000	3.696910E-7	6.367440E-8	3.851240E-8	3.166510E-9	12.162412	20.108700	3.368100E-7	6.702520E-13	6.361200E-13	5.603760E-13	5.722870E-13	5.133770E-13	5.585590E-13	4.990690E-13	4.591750E-13
	169.086123	20.102300	3.707130E-7	6.445990E-8	3.825040E-8	3.148560E-9	12.148538	20.472819	3.349960E-7	6.657470E-13	6.026770E-13	5.557320E-13	5.240950E-13	5.128610E-13	4.979080E-13	4.796760E-13	4.937040E-13
	169.086806	20.317300	3.693690E-7	6.405880E-8	3.871470E-8	3.126580E-9	12.382443	20.488457	3.340890E-7	6.625010E-13	6.017960E-13	5.615800E-13	5.332000E-13	5.206010E-13	5.297810E-13	4.883720E-13	5.025410E-13
	169.087477	20.102300	3.686700E-7	6.339460E-8	3.830350E-8	3.165370E-9	12.100797	20.027548	3.358020E-7	6.775400E-13	6.285310E-13	5.999140E-13	5.251910E-13	5.267610E-13	4.855770E-13	5.261160E-13	5.019600E-13
	169.088148	20.102300	3.687240E-7	6.400500E-8	3.820740E-8	3.109770E-9	12.286246	20.581908	3.336520E-7	6.548040E-13	6.282620E-13	5.833700E-13	5.370810E-13	5.470140E-13	5.569250E-13	5.219550E-13	5.341350E-13
	169.088831	20.156000	3.680790E-7	6.388410E-8	3.862600E-8	3.165750E-9	12.201216	20.179768	3.326120E-7	6.658660E-13	6.717140E-13	6.198880E-13	6.010110E-13	5.527330E-13	6.350670E-13	5.287820E-13	4.901680E-13
	169.089502	20.048500	3.688850E-7	6.384440E-8	3.813550E-8	3.192720E-9	11.944518	19.996868	3.352990E-7	6.800990E-13	6.726490E-13	5.771570E-13	5.415420E-13	5.108940E-13	5.101090E-13	4.686250E-13	4.560150E-13
	169.090185	19.994800	3.693150E-7	6.425160E-8	3.816380E-8	3.130470E-9	12.191077	20.524586	3.313000E-7	5.964960E-13	4.777190E-13	6.067300E-13	4.446630E-13	4.597990E-13	4.392230E-13	4.286780E-13	4.243560E-13
	169.090856	20.102300	3.689930E-7	6.354680E-8	3.846510E-8	3.137590E-9	12.259441	20.253379	3.326100E-7	6.442470E-13	5.691800E-13	6.975780E-13	4.904790E-13	5.082380E-13	5.046910E-13	4.683240E-13	4.886410E-13
	169.091528	20.317300	3.706590E-7	6.329980E-8	3.799810E-8	3.174860E-9	11.968433	19.937824	3.341230E-7	6.892680E-13	7.109620E-13	5.953670E-13	5.923890E-13	5.393810E-13	5.281800E-13	5.222130E-13	5.240730E-13
	169.092211	20.156000	3.705510E-7	6.411650E-8	3.860790E-8	3.123480E-9	12.360540	20.527264	3.324430E-7	7.084570E-13	6.841510E-13	6.746700E-13	5.734260E-13	5.378550E-13	5.965820E-13	4.730210E-13	4.953600E-13
	169.092882	20.209800	3.704980E-7	6.374150E-8	3.901030E-8	3.151730E-9	12.377424	20.224290	3.346590E-7	6.707680E-13	6.438820E-13	6.081920E-13	6.031500E-13	5.414560E-13	5.176770E-13	5.386930E-13	5.182900E-13
	169.093553	20.209800	3.718410E-7	6.378560E-8	3.848590E-8	3.182800E-9	12.091837	20.040719	3.360030E-7	7.467380E-13	6.543310E-13	6.747770E-13	5.619350E-13	5.554520E-13	5.278680E-13	6.137500E-13	5.276420E-13
	169.094236	20.209800	3.707130E-7	6.423110E-8	3.909530E-8	3.123700E-9	12.515703	20.562506	3.336850E-7	6.909560E-13	6.810880E-13	5.695240E-13	5.366180E-13	5.612040E-13	5.377790E-13	5.527860E-13	5.642780E-13
	169.094907	20.263500	3.700140E-7	6.353200E-8	3.908930E-8	3.157040E-9	12.381630	20.123914	3.368100E-7	6.997070E-13	6.531160E-13	5.612040E-13	5.471210E-13	5.559790E-13	5.221170E-13	5.293190E-13	5.229120E-13
	169.095590	20.371000	3.715190E-7	6.365710E-8	3.853120E-8	3.139560E-9	12.272803	20.275803	3.364740E-7	6.701230E-13	6.298960E-13	5.661590E-13	5.392520E-13	5.134200E-13	5.043360E-13	4.916400E-13	5.002730E-13
	169.096262	20.317300	3.700140E-7	6.405300E-8	3.899550E-8	3.109290E-9	12.541609	20.600523	3.336850E-7	6.857420E-13	6.073000E-13	5.946680E-13	5.592470E-13	5.265560E-13	4.973700E-13	4.963490E-13	4.710330E-13
	169.096933	20.263500	3.685630E-7	6.334010E-8	3.893810E-8	3.146250E-9	12.376035	20.131935	3.376500E-7	6.503210E-13	6.098150E-13	6.468170E-13	5.473250E-13	5.374250E-13	4.975420E-13	4.911780E-13	5.236320E-13
	169.097616	20.156000	3.699600E-7	6.345870E-8	3.814800E-8	3.121170E-9	12.222340	20.331703	3.354990E-7	6.751750E-13	6.273700E-13	5.680080E-13	5.778230E-13	5.339310E-13	5.024440E-13	5.071960E-13	5.148710E-13
	169.098287	20.317300	3.687780E-7	6.381580E-8	3.901240E-8	3.095860E-9	12.601474	20.613271	3.327450E-7	6.988360E-13	6.233920E-13	6.071170E-13	5.713620E-13	5.288140E-13	5.270190E-13	5.219660E-13	5.170860E-13
	169.098958	20.156000	3.674880E-7	6.310170E-8	3.874220E-8	3.108370E-9	12.463832	20.300576	3.348280E-7	6.830550E-13	6.870220E-13	5.617730E-13	5.618590E-13	5.661060E-13	5.637840E-13	5.612470E-13	5.359840E-13
	169.099641	20.048500	3.687780E-7	6.359420E-8	3.825040E-8	3.138160E-9	12.188799	20.264805	3.338200E-7	6.500200E-13	6.140610E-13	5.373600E-13	5.734160E-13	5.427240E-13	5.373490E-13	4.932210E-13	5.046910E-13
	169.100313	20.156000	3.680790E-7	6.339730E-8	3.887620E-8	3.092940E-9	12.569335	20.497423	3.313680E-7	5.977430E-13	6.144160E-13	5.560440E-13	4.764080E-13	4.943060E-13	4.789230E-13	4.565090E-13	3.855480E-13
	169.100984	20.156000	3.685090E-7	6.296830E-8	3.888970E-8	3.162020E-9	12.299005	19.913947	3.351300E-7	7.364500E-13	7.721940E-13	5.604190E-13	7.240660E-13	4.991870E-13	5.541840E-13	6.339810E-13	4.948120E-13
	169.101667	20.048500	3.701750E-7	6.353540E-8	3.860510E-8	3.133990E-9	12.318195	20.273007	3.338210E-7	7.500700E-13	7.486620E-13	7.065110E-13	6.630380E-13	7.660660E-13	7.214970E-13	6.124700E-13	7.056730E-13
	169.102338	20.102300	3.692080E-7	6.334630E-8	3.908990E-8	3.113450E-9	12.555172	20.346015	3.327110E-7	7.090700E-13	6.500200E-13	6.230590E-13	6.205330E-13	5.654500E-13	5.606660E-13	5.305770E-13	5.795430E-13
	169.103021	20.048500	3.702290E-7	6.291090E-8	3.891190E-8	3.167500E-9	12.284736	19.861373	3.367430E-7	6.681230E-13	6.331100E-13	5.450570E-13	5.843590E-13	5.444010E-13	5.457450E-13	5.363170E-13	5.773610E-13
	169.103692	20.156000	3.708740E-7	6.368410E-8	3.887800E-8	3.116500E-9	12.474892	20.434494	3.342560E-7	7.866210E-13	7.764290E-13	6.987280E-13	5.748130E-13	5.534740E-13	5.372740E-13	6.751540E-13	6.677790E-13
	169.104363	20.263500	3.696910E-7	6.341550E-8	3.943690E-8	3.099990E-9	12.721622	20.456679	3.343910E-7	7.835250E-13	6.972130E-13	6.279610E-13	6.250800E-13	5.917770E-13	5.753400E-13	5.866920E-13	5.728030E-13
	169.105046	20.209800	3.707660E-7	6.295250E-8	3.900360E-8	3.130240E-9	12.460259	20.111078	3.366750E-7	7.780740E-13	7.117570E-13	7.341170E-13	5.847570E-13	5.692980E-13	5.859720E-13	6.178990E-13	6.235320E-13
	169.105718	20.371000	3.705510E-7	6.360560E-8	3.911300E-8	3.093980E-9	12.641646	20.557858	3.350640E-7	6.952020E-13	7.155740E-13	6.193400E-13	5.841330E-13	5.332640E-13	5.488630E-13	5.248260E-13	6.035050E-13
	169.106389	20.317300	3.687240E-7	6.334800E-8	3.973220E-8	3.131100E-9	12.689534	20.231867	3.358700E-7	6.757990E-13	6.561370E-13	5.242990E-13	5.584840E-13	5.149250E-13	5.204930E-13	5.707600E-13	4.620670E-13
	169.107072	20.209800	3.700680E-7	6.282950E-8	3.908620E-8	3.124750E-9	12.508585	20.107049	3.372800E-7	6.496550E-13	6.078050E-13	5.757270E-13	5.664280E-13	5.033260E-13	5.308990E-13	4.925970E-13	4.503280E-13
	169.107743	20.209800	3.692080E-7	6.344840E-8	3.948530E-8	3.101670E-9	12.730336	20.456206	3.345590E-7	6.405060E-13	6.002150E-13	5.574950E-13	5.722120E-13	5.035410E-13	5.234500E-13	5.250300E-13	5.031110E-13
	169.108426	20.102300	3.677560E-7	6.291250E-8	3.969890E-8	3.131350E-9	12.677887	20.091175	3.358700E-7	7.203790E-13	6.576200E-13	5.827790E-13	5.500770E-13	5.702340E-13	5.582260E-13	5.335220E-13	5.268040E-13
	169.109097	20.317300	3.691540E-7	6.289210E-8	3.916040E-8	3.132510E-9	12.501285	20.077222	3.363730E-7	7.204650E-13	6.060630E-13	5.832630E-13	5.601820E-13	5.241270E-13	5.082280E-13	5.369090E-13	4.974560E-13
	169.109769	20.156000	3.681330E-7	6.341440E-8	3.974230E-8	3.093410E-9	12.847408	20.499837	3.330470E-7	5.883470E-13	5.212240E-13	5.028420E-13	4.904790E-13	4.371490E-13	4.621420E-13	4.785040E-13	4.483500E-13
	169.110451	20.263500	3.672730E-7	6.294250E-8	3.984240E-8	3.119950E-9	12.770205	20.174202	3.347270E-7	6.170390E-13	5.584090E-13	5.563230E-13	5.133770E-13	4.672270E-13	4.910060E-13	4.391910E-13	4.587880E-13
	169.111123	19.941000	3.689390E-7	6.298310E-8	3.915770E-8	3.117090E-9	12.562262	20.205737	3.343240E-7	6.163940E-13	5.368550E-13	4.189490E-13	3.765940E-13	3.988360E-13	4.720220E-13	4.853840E-13	5.120980E-13
	169.111794	19.994800	3.687240E-7	6.351390E-8	3.966740E-8	3.100910E-9	12.792180	20.482342	3.328460E-7	8.833710E-13	8.341790E-13	7.735590E-13	8.370060E-13	7.632820E-13	7.390090E-13	6.925260E-13	6.209520E-13
	169.112477	20.156000	3.682940E-7	6.262370E-8	3.933410E-8	3.126770E-9	12.579787	20.028240	3.353320E-7	8.313080E-13	7.146280E-13	6.966210E-13	7.213250E-13	5.831870E-13	5.583230E-13	5.390050E-13	5.257610E-13
	169.113148	20.263500	3.705510E-7	6.304050E-8	3.871900E-8	3.121080E-9	12.405642	20.198297	3.348280E-7	8.434340E-13	7.928660E-13	6.406140E-13	5.701580E-13	5.801770E-13	5.476690E-13	6.287780E-13	5.460570E-13
	169.113831	20.317300	3.697990E-7	6.330200E-8	3.911280E-8	3.071160E-9	12.735514	20.611756	3.326780E-7	7.907700E-13	7.868250E-13	6.639310E-13	6.069560E-13	5.550120E-13	5.517110E-13	5.729430E-13	6.192430E-13
	169.114502	20.371000	3.686160E-7	6.281180E-8	3.891280E-8	3.141340E-9	12.387325	19.995225	3.359030E-7	6.896880E-13	6.311110E-13	5.629560E-13	5.719860E-13	5.523460E-13	5.018740E-13	5.411550E-13	5.337270E-13
	169.115174	20.263500	3.707130E-7	6.308020E-8	3.825330E-8	3.077420E-9	12.430315	20.497755	3.349960E-7	6.467840E-13	6.160930E-13	5.743510E-13	5.368760E-13	5.402630E-13	5.490990E-13	5.401550E-13	5.343290E-13
	169.115856	20.263500	3.696380E-7	6.324210E-8	3.864850E-8	3.070250E-9	12.588063	20.598355	3.329460E-7	6.658330E-13	6.091380E-13	5.837250E-13	5.593220E-13	5.208700E-13	5.330710E-13	5.348450E-13	4.723550E-13
	169.116528	20.424800	3.680790E-7	6.251820E-8	3.790270E-8	3.116960E-9	12.160150	20.057428	3.348950E-7	6.433010E-13	5.912500E-13	5.516150E-13	5.261050E-13	5.090120E-13	5.060560E-13	5.086900E-13	4.947470E-13
	169.117199	20.317300	3.700140E-7	6.294810E-8	3.710190E-8	3.074930E-9	12.065933	20.471393	3.330810E-7	6.481170E-13	6.125670E-13	5.634610E-13	5.162040E-13	4.951560E-13	5.056050E-13	5.027770E-13	4.876310E-13
	169.117882	20.317300	3.687240E-7	6.308320E-8	3.742300E-8	3.080540E-9	12.148195	20.477968	3.319050E-7	6.509980E-13	6.113200E-13	5.980980E-13	5.645360E-13	5.339090E-13	5.097650E-13	5.180100E-13	4.982190E-13
	169.118553	20.263500	3.681860E-7	6.220980E-8	3.660670E-8	3.110040E-9	11.770492	20.002894	3.332490E-7	6.623930E-13	6.376360E-13	5.716960E-13	6.012370E-13	5.383490E-13	5.352850E-13	5.934430E-13	5.278890E-13
	169.119236	20.263500	3.694230E-7	6.316910E-8	3.631610E-8	3.078260E-9	11.797606	20.521041	3.306630E-7	7.278500E-13	7.107900E-13	5.849720E-13	5.721790E-13	5.986780E-13	4.675170E-13	5.600000E-13	5.241700E-13
	169.119907	20.371000	3.682400E-7	6.310030E-8	3.692920E-8	3.087160E-9	11.962192	20.439595	3.297550E-7	6.667580E-13	5.433800E-13	4.936290E-13	4.952630E-13	4.283980E-13	4.022540E-13	3.834200E-13	3.472140E-13
	169.120579	19.994800	3.685090E-7	6.231060E-8	3.640780E-8	3.115880E-9	11.684596	19.997753	3.316020E-7	5.796400E-13	5.437350E-13	5.145380E-13	4.888990E-13	4.907910E-13	5.038850E-13	4.868350E-13	7.583480E-13
	169.121262	20.102300	3.699600E-7	6.305370E-8	3.658450E-8	3.077170E-9	11.889008	20.490808	3.295200E-7	8.901750E-13	9.308960E-13	6.009790E-13	6.977070E-13	7.960800E-13	6.405920E-13	5.968830E-13	4.297850E-13
	169.121933	20.156000	3.694230E-7	6.270900E-8	3.708340E-8	3.095680E-9	11.979081	20.256939	3.303590E-7	8.809300E-13	8.073140E-13	8.618280E-13	7.740750E-13	7.816540E-13	7.427070E-13	5.579460E-13	5.178490E-13
	169.122604	20.102300	3.709280E-7	6.245060E-8	3.656840E-8	3.112010E-9	11.750733	20.067609	3.331150E-7	7.254420E-13	7.647660E-13	6.263490E-13	6.215650E-13	5.775760E-13	6.970080E-13	5.154730E-13	5.394780E-13
	169.123287	20.209800	3.706050E-7	6.349400E-8	3.713180E-8	3.078750E-9	12.060674	20.623305	3.319050E-7	6.939450E-13	6.064830E-13	5.555060E-13	5.661590E-13	5.235360E-13	5.211280E-13	5.190960E-13	5.360920E-13
	169.123958	20.209800	3.703360E-7	6.310410E-8	3.736610E-8	3.120270E-9	11.975278	20.223923	3.328790E-7	6.777870E-13	6.522240E-13	5.972910E-13	5.651600E-13	5.487010E-13	5.377260E-13	5.491640E-13	5.324470E-13
	169.124641	20.156000	3.715730E-7	6.284970E-8	3.686940E-8	3.104060E-9	11.877799	20.247579	3.339540E-7	6.433550E-13	6.509450E-13	5.775440E-13	5.266850E-13	5.507010E-13	5.370160E-13	5.257720E-13	5.105280E-13
	169.125313	20.156000	3.702830E-7	6.347020E-8	3.748710E-8	3.066070E-9	12.226433	20.700832	3.322750E-7	6.816250E-13	6.363780E-13	5.675250E-13	5.379080E-13	5.210950E-13	5.490560E-13	5.098510E-13	5.123020E-13
	169.125984	20.371000	3.688850E-7	6.257420E-8	3.760100E-8	3.085660E-9	12.185724	20.279033	3.344920E-7	6.721540E-13	6.089870E-13	5.759530E-13	5.490130E-13	5.344580E-13	5.170640E-13	4.983700E-13	4.630560E-13
	169.126667	20.317300	3.711430E-7	6.245100E-8	3.713180E-8	3.103600E-9	11.964106	20.122116	3.341900E-7	6.591470E-13	6.369370E-13	5.693200E-13	5.100550E-13	4.963920E-13	5.015950E-13	4.859750E-13	4.980370E-13
	169.127338	20.317300	3.695840E-7	6.314500E-8	3.784860E-8	3.064890E-9	12.349089	20.602697	3.331150E-7	6.489880E-13	6.281120E-13	5.713410E-13	5.378120E-13	5.101090E-13	5.119260E-13	4.652060E-13	5.193540E-13
	169.128009	20.263500	3.677560E-7	6.263080E-8	3.783420E-8	3.076440E-9	12.298046	20.358206	3.353320E-7	6.757880E-13	6.439790E-13	5.510880E-13	5.812630E-13	5.177740E-13	5.090450E-13	5.605910E-13	5.020680E-13
	169.128692	20.209800	3.699060E-7	6.490140E-8	3.874560E-8	3.242310E-9	11.949999	20.017025	3.387580E-7	7.557460E-13	6.677360E-13	6.742610E-13	6.542990E-13	5.965070E-13	5.904010E-13	4.839970E-13	5.105820E-13
	169.129363	20.209800	3.677560E-7	6.492100E-8	3.888670E-8	3.130410E-9	12.422239	20.738817	3.331480E-7	6.207260E-13	7.510060E-13	5.361990E-13	5.787150E-13	4.955320E-13	4.405030E-13	4.601750E-13	3.826890E-13
	169.130035	20.263500	3.665200E-7	6.285510E-8	3.817930E-8	3.130730E-9	12.195015	20.076819	3.342560E-7	5.002400E-13	5.617630E-13	5.985810E-13	5.212670E-13	4.486510E-13	4.644640E-13	4.862980E-13	4.657760E-13
	169.130718	20.209800	3.683480E-7	6.292290E-8	3.782550E-8	3.091660E-9	12.234689	20.352464	3.319050E-7	7.834170E-13	8.259120E-13	7.059630E-13	7.496510E-13	5.150860E-13	5.395530E-13	4.846640E-13	5.877560E-13
	169.131389	19.941000	3.674340E-7	6.302910E-8	3.847980E-8	3.090240E-9	12.452043	20.396183	3.304600E-7	7.927050E-13	6.722080E-13	7.149070E-13	7.306020E-13	7.905870E-13	6.327880E-13	5.440680E-13	4.712800E-13
	169.132072	20.156000	3.673260E-7	6.250870E-8	3.845360E-8	3.134340E-9	12.268484	19.943178	3.345930E-7	4.992730E-13	4.235390E-13	5.532380E-13	5.074860E-13	4.969190E-13	5.350920E-13	5.414130E-13	4.487590E-13
	169.132743	20.156000	3.695840E-7	6.301030E-8	3.803370E-8	3.089970E-9	12.308760	20.391881	3.329800E-7	7.449100E-13	6.770670E-13	7.010610E-13	5.828000E-13	7.206910E-13	5.875090E-13	5.584090E-13	5.402630E-13
	169.133414	20.048500	3.692080E-7	6.327440E-8	3.865120E-8	3.091640E-9	12.501844	20.466290	3.320400E-7	7.311930E-13	7.061460E-13	6.356900E-13	6.702730E-13	6.182650E-13	5.630630E-13	5.637510E-13	5.568710E-13
	169.134097	20.209800	3.691000E-7	6.258460E-8	3.819230E-8	3.141440E-9	12.157577	19.922265	3.349960E-7	7.396210E-13	7.442330E-13	6.756370E-13	6.468060E-13	5.649980E-13	5.875730E-13	5.883690E-13	6.442260E-13
	169.134769	19.994800	3.696380E-7	6.293300E-8	3.777610E-8	3.080890E-9	12.261424	20.426890	3.328790E-7	7.594770E-13	7.162080E-13	6.460210E-13	6.296270E-13	5.873690E-13	5.983770E-13	5.629340E-13	5.477660E-13
	169.135440	20.263500	3.687240E-7	6.299290E-8	3.842180E-8	3.067220E-9	12.526588	20.537457	3.322740E-7	7.458780E-13	6.533420E-13	6.142870E-13	5.962270E-13	5.832410E-13	5.432080E-13	5.235140E-13	5.633540E-13
	169.136123	20.156000	3.685090E-7	6.226350E-8	3.776290E-8	3.088790E-9	12.225791	20.157894	3.346930E-7	6.683810E-13	6.352820E-13	5.932170E-13	5.755230E-13	5.373390E-13	5.209560E-13	5.065290E-13	5.135060E-13
	169.136794	20.263500	3.686160E-7	6.301500E-8	3.774850E-8	3.056910E-9	12.348581	20.613953	3.326780E-7	7.373210E-13	6.708860E-13	5.902820E-13	5.706960E-13	5.184510E-13	5.322750E-13	5.402840E-13	4.939410E-13
	169.137477	20.209800	3.679710E-7	6.292590E-8	3.811780E-8	3.091080E-9	12.331548	20.357254	3.337530E-7	6.833340E-13	6.517190E-13	5.843160E-13	5.530980E-13	5.573870E-13	5.295990E-13	5.376070E-13	5.303730E-13
	169.138148	20.209800	3.683480E-7	6.241900E-8	3.752980E-8	3.101030E-9	12.102366	20.128473	3.343920E-7	7.180890E-13	6.570940E-13	6.007420E-13	5.604940E-13	5.666860E-13	5.158060E-13	5.385000E-13	5.146240E-13
	169.138819	20.263500	3.674340E-7	6.315480E-8	3.759910E-8	3.064160E-9	12.270606	20.610804	3.301930E-7	7.500380E-13	6.993410E-13	7.150900E-13	6.008390E-13	6.058480E-13	6.190490E-13	5.669010E-13	4.835130E-13
	169.139479	20.263500	3.658210E-7	6.225240E-8	3.751670E-8	3.085660E-9	12.158404	20.174744	3.332160E-7	6.266710E-13	5.790920E-13	8.400800E-13	4.537790E-13	3.915690E-13	3.650910E-13	3.620380E-13	3.508260E-13
	169.140150	19.941000	3.673260E-7	6.265560E-8	3.679750E-8	3.096390E-9	11.884000	20.235048	3.306960E-7	8.257290E-13	7.374930E-13	7.728390E-13	7.288180E-13	4.820080E-13	5.466050E-13	5.128500E-13	5.895730E-13
	169.140822	20.048500	3.658750E-7	6.279430E-8	3.732060E-8	3.069770E-9	12.157458	20.455702	3.281760E-7	7.588750E-13	6.094070E-13	6.145990E-13	6.006670E-13	5.438960E-13	5.363500E-13	4.681730E-13	4.247750E-13
	169.141505	19.994800	3.664130E-7	6.223490E-8	3.692140E-8	3.100450E-9	11.908400	20.072860	3.306960E-7	6.373890E-13	5.704270E-13	5.420580E-13	5.305660E-13	4.977460E-13	4.935970E-13	4.961340E-13	4.651200E-13
	169.142176	19.779800	3.691000E-7	6.304010E-8	3.674920E-8	3.086830E-9	11.905158	20.422278	3.303260E-7	6.760240E-13	6.282510E-13	5.969040E-13	5.983340E-13	5.370590E-13	5.375430E-13	5.048200E-13	5.418110E-13
	169.142859	19.994800	3.689390E-7	6.299490E-8	3.709650E-8	3.084230E-9	12.027799	20.424839	3.281090E-7	6.515140E-13	5.987640E-13	5.433050E-13	5.065400E-13	4.682050E-13	4.813630E-13	4.461030E-13	4.011360E-13
	169.143530	20.156000	3.691540E-7	6.235790E-8	3.677990E-8	3.108500E-9	11.832041	20.060447	3.313340E-7	6.629420E-13	6.192320E-13	5.943670E-13	5.712120E-13	5.939480E-13	5.686530E-13	5.266850E-13	4.403410E-13
	169.144201	20.048500	3.703360E-7	6.318330E-8	3.653310E-8	3.058210E-9	11.945910	20.660223	3.302250E-7	6.410870E-13	5.799730E-13	6.892580E-13	5.770380E-13	4.980150E-13	3.379900E-13	4.236790E-13	4.290430E-13
	169.144884	20.102300	3.699060E-7	6.275470E-8	3.698130E-8	3.078590E-9	12.012415	20.384234	3.297890E-7	9.559010E-13	9.303050E-13	8.399840E-13	8.759640E-13	8.526150E-13	7.745050E-13	7.870720E-13	7.445990E-13
	169.145556	20.102300	3.696380E-7	6.238750E-8	3.667080E-8	3.120410E-9	11.751917	19.993366	3.323080E-7	8.268900E-13	8.320610E-13	7.822770E-13	8.074430E-13	7.442870E-13	7.720760E-13	7.194330E-13	5.422410E-13
	169.146238	20.048500	3.702830E-7	6.328240E-8	3.627040E-8	3.070620E-9	11.812077	20.608998	3.305950E-7	7.955000E-13	7.286460E-13	7.195730E-13	7.330420E-13	6.858930E-13	7.084680E-13	7.187660E-13	7.341710E-13
	169.146910	20.263500	3.696380E-7	6.327970E-8	3.670310E-8	3.093290E-9	11.865393	20.457086	3.305610E-7	8.294160E-13	8.100550E-13	7.304840E-13	7.318280E-13	7.079090E-13	7.013940E-13	6.883980E-13	6.886770E-13
	169.147581	20.102300	3.693690E-7	6.247280E-8	3.618000E-8	3.103950E-9	11.656116	20.126871	3.314350E-7	8.199240E-13	7.639490E-13	7.203360E-13	7.201420E-13	6.395170E-13	7.012980E-13	7.076620E-13	7.055220E-13
	169.148264	20.317300	3.695840E-7	6.325650E-8	3.633120E-8	3.091990E-9	11.750103	20.458184	3.285110E-7	7.480600E-13	6.840870E-13	6.045050E-13	5.605480E-13	5.612250E-13	5.705990E-13	5.548400E-13	5.197840E-13
	169.148935	19.994800	3.679180E-7	6.289140E-8	3.676390E-8	3.102480E-9	11.849843	20.271331	3.286800E-7	6.280260E-13	5.831770E-13	4.308810E-13	5.236650E-13	3.478910E-13	3.318840E-13	4.015660E-13	4.461460E-13
	169.149606	20.156000	3.699060E-7	6.253660E-8	3.636380E-8	3.115060E-9	11.673547	20.075568	3.301250E-7	8.540660E-13	8.972380E-13	8.633000E-13	7.575310E-13	8.346520E-13	7.825460E-13	8.524210E-13	7.518870E-13
	169.150289	19.887300	3.693150E-7	6.333420E-8	3.671890E-8	3.073680E-9	11.946234	20.605333	3.288480E-7	9.465380E-13	8.923900E-13	8.355330E-13	8.038420E-13	8.273630E-13	8.181930E-13	8.183650E-13	8.106040E-13
	169.150961	19.994800	3.684550E-7	6.280670E-8	3.691810E-8	3.103360E-9	11.896171	20.238290	3.303600E-7	7.971660E-13	8.512930E-13	8.010250E-13	7.580900E-13	7.605620E-13	7.259690E-13	5.725560E-13	5.864450E-13
	169.151632	20.048500	3.708740E-7	6.268580E-8	3.611320E-8	3.120810E-9	11.571739	20.086388	3.309300E-7	6.772500E-13	6.874620E-13	5.786190E-13	5.777370E-13	5.788980E-13	6.005590E-13	6.692200E-13	6.800770E-13
	169.152315	20.048500	3.701210E-7	6.373720E-8	3.587880E-8	3.116300E-9	11.513269	20.452845	3.288480E-7	7.927370E-13	6.792060E-13	7.113270E-13	6.674570E-13	6.982120E-13	7.173470E-13	7.135100E-13	6.813350E-13
	169.152986	20.156000	3.675950E-7	6.305510E-8	3.480730E-8	3.131590E-9	11.114897	20.135171	3.290500E-7	7.782570E-13	7.635080E-13	7.165300E-13	7.023300E-13	6.798730E-13	6.855700E-13	6.960190E-13	6.782930E-13
	169.153669	19.887300	3.693150E-7	6.334860E-8	3.401660E-8	3.151700E-9	10.793096	20.099819	3.287800E-7	7.828150E-13	7.901460E-13	7.373850E-13	6.947620E-13	6.822160E-13	7.066080E-13	6.791850E-13	6.842910E-13
	169.154340	19.941000	3.670580E-7	6.383940E-8	3.448590E-8	3.110910E-9	11.085470	20.521134	3.262610E-7	6.860430E-13	6.752500E-13	6.087190E-13	6.035370E-13	5.533350E-13	5.535170E-13	5.843480E-13	5.536030E-13
	169.155012	19.887300	3.656600E-7	6.297110E-8	3.441460E-8	3.126630E-9	11.006931	20.140247	3.285790E-7	7.248400E-13	6.616840E-13	6.167920E-13	6.150930E-13	5.826280E-13	5.689760E-13	5.758990E-13	5.989470E-13
	169.155671	19.887300	3.666280E-7	6.370430E-8	3.407680E-8	3.098660E-9	10.997270	20.558661	3.269680E-7	8.161290E-13	7.816220E-13	7.346120E-13	6.950520E-13	6.505250E-13	6.185010E-13	6.814640E-13	6.762290E-13
	169.156343	20.156000	3.653910E-7	6.359210E-8	3.436860E-8	3.124400E-9	11.000064	20.353380	3.262610E-7	8.735340E-13	7.965530E-13	7.348160E-13	6.397110E-13	6.008390E-13	7.224000E-13	6.915690E-13	6.220490E-13
	169.157025	19.887300	3.648540E-7	6.288690E-8	3.385400E-8	3.145630E-9	10.762232	19.991830	3.278410E-7	8.233860E-13	8.328670E-13	6.795830E-13	7.051460E-13	6.175550E-13	6.287240E-13	6.163300E-13	6.773790E-13
	169.157697	19.887300	3.652300E-7	6.360090E-8	3.365340E-8	3.120860E-9	10.783374	20.379286	3.243140E-7	7.673560E-13	6.786580E-13	6.019140E-13	6.102770E-13	5.937650E-13	5.066580E-13	5.385100E-13	5.479700E-13
	169.158368	19.887300	3.629190E-7	6.328480E-8	3.385830E-8	3.112640E-9	10.877679	20.331551	3.235410E-7	7.158640E-13	6.165230E-13	5.862190E-13	5.798870E-13	5.213210E-13	4.486300E-13	4.367830E-13	4.648840E-13
	169.159051	19.726000	3.640480E-7	6.304260E-8	3.344280E-8	3.160250E-9	10.582327	19.948612	3.245150E-7	8.509060E-13	9.144810E-13	8.361780E-13	7.447710E-13	7.239260E-13	6.776910E-13	5.014660E-13	7.026090E-13
	169.159722	19.564800	3.645310E-7	6.343400E-8	3.340550E-8	3.115640E-9	10.721874	20.359862	3.225670E-7	7.375570E-13	8.529270E-13	8.049920E-13	7.870400E-13	7.855130E-13	7.814280E-13	8.060570E-13	6.226720E-13
	169.160394	19.887300	3.643700E-7	6.336570E-8	3.382180E-8	3.136290E-9	10.784016	20.204031	3.242130E-7	8.263310E-13	6.783890E-13	6.655430E-13	7.149720E-13	5.948190E-13	5.398220E-13	6.517940E-13	6.250260E-13
	169.161076	19.672300	3.661440E-7	6.310710E-8	3.331350E-8	3.144300E-9	10.594886	20.070318	3.254210E-7	7.268180E-13	6.638120E-13	6.229950E-13	6.264560E-13	6.802710E-13	7.007490E-13	6.818510E-13	7.105750E-13
	169.161748	19.618500	3.659290E-7	6.380850E-8	3.371110E-8	3.112870E-9	10.829588	20.498286	3.241450E-7	7.996280E-13	8.047560E-13	7.230660E-13	7.409440E-13	7.301400E-13	6.449780E-13	6.491170E-13	6.380020E-13
	169.162431	19.779800	3.644780E-7	6.297030E-8	3.343710E-8	3.130830E-9	10.679947	20.112973	3.253210E-7	8.291480E-13	7.713230E-13	7.372990E-13	6.917730E-13	6.240480E-13	6.250910E-13	6.053220E-13	6.455800E-13
	169.163102	19.833500	3.664130E-7	6.299450E-8	3.279010E-8	3.120210E-9	10.508940	20.189186	3.249510E-7	8.333400E-13	7.901140E-13	7.248290E-13	7.165410E-13	6.653930E-13	5.830150E-13	5.883900E-13	5.635470E-13
	169.163773	19.511000	3.652840E-7	6.378970E-8	3.339310E-8	3.130830E-9	10.665894	20.374693	3.236410E-7	7.540260E-13	6.933750E-13	6.592110E-13	6.033540E-13	5.729100E-13	5.514210E-13	5.722980E-13	5.583010E-13
	169.164456	19.618500	3.637790E-7	6.287050E-8	3.321820E-8	3.118020E-9	10.653620	20.163597	3.260940E-7	7.077910E-13	6.706710E-13	6.440110E-13	6.133950E-13	6.087830E-13	5.839610E-13	5.305770E-13	5.787800E-13
	169.165127	19.726000	3.660360E-7	6.311640E-8	3.279070E-8	3.125610E-9	10.490976	20.193306	3.255550E-7	8.138500E-13	7.823740E-13	7.291510E-13	6.993630E-13	6.140290E-13	6.194360E-13	6.149860E-13	6.235750E-13
	169.165799	19.887300	3.648540E-7	6.370340E-8	3.343380E-8	3.112800E-9	10.740748	20.464983	3.242460E-7	7.997350E-13	7.400940E-13	6.868500E-13	6.738960E-13	6.330350E-13	6.378830E-13	6.394100E-13	6.318960E-13
	169.166481	19.941000	3.631880E-7	6.314410E-8	3.314040E-8	3.159660E-9	10.488597	19.984460	3.263630E-7	7.914900E-13	7.139500E-13	6.686070E-13	6.395710E-13	6.020000E-13	5.484760E-13	5.658690E-13	6.124810E-13
	169.167153	19.618500	3.648000E-7	6.372790E-8	3.281430E-8	3.128180E-9	10.489901	20.372197	3.247500E-7	7.449430E-13	7.210990E-13	5.670620E-13	6.266500E-13	5.535600E-13	5.773290E-13	5.136240E-13	4.509520E-13
	169.167824	19.833500	3.629190E-7	6.381550E-8	3.324660E-8	3.139390E-9	10.590146	20.327357	3.219950E-7	5.623110E-13	4.625620E-13	4.327730E-13	4.198300E-13	3.850860E-13	3.749810E-13	3.985020E-13	4.000610E-13
	169.168507	19.726000	3.619510E-7	6.318960E-8	3.299630E-8	3.170240E-9	10.408139	19.932119	3.239770E-7	8.046480E-13	8.148930E-13	7.339450E-13	6.223820E-13	6.375290E-13	6.764440E-13	6.087830E-13	6.658870E-13
	169.169178	19.349800	3.635640E-7	6.393450E-8	3.254820E-8	3.128930E-9	10.402342	20.433343	3.226000E-7	8.073790E-13	8.382420E-13	6.603940E-13	6.918050E-13	6.654890E-13	6.910420E-13	5.277070E-13	6.038810E-13
	169.169861	19.618500	3.634030E-7	6.356020E-8	3.264730E-8	3.083210E-9	10.588737	20.614944	3.202150E-7	6.651780E-13	6.227150E-13	6.024190E-13	5.326090E-13	5.299960E-13	5.683310E-13	4.890280E-13	4.878780E-13
	169.170532	19.511000	3.630260E-7	6.301540E-8	3.263250E-8	3.180650E-9	10.259695	19.812114	3.240780E-7	6.992770E-13	7.822880E-13	7.022760E-13	6.024080E-13	6.672630E-13	6.908920E-13	5.426170E-13	5.920450E-13
	169.171204	19.618500	3.657140E-7	6.405010E-8	3.273190E-8	3.141260E-9	10.419991	20.389939	3.232720E-7	7.141760E-13	6.354540E-13	6.974060E-13	6.175770E-13	6.208880E-13	5.756190E-13	5.185800E-13	6.560190E-13
	169.171887	19.564800	3.639400E-7	6.362370E-8	3.290260E-8	3.129540E-9	10.513558	20.330049	3.222300E-7	7.128320E-13	6.771960E-13	6.999000E-13	6.545570E-13	6.791740E-13	7.148530E-13	6.912030E-13	6.906010E-13
	169.172558	19.672300	3.645850E-7	6.294980E-8	3.265240E-8	3.135840E-9	10.412649	20.074302	3.247160E-7	8.049600E-13	7.775470E-13	7.156920E-13	7.038450E-13	6.352390E-13	6.146310E-13	6.449460E-13	6.122120E-13
	169.173241	19.511000	3.646930E-7	6.387500E-8	3.261970E-8	3.120340E-9	10.453893	20.470526	3.232040E-7	8.139690E-13	7.826210E-13	6.929990E-13	6.847960E-13	6.593510E-13	5.970550E-13	5.943890E-13	6.372920E-13
	169.173912	19.833500	3.641550E-7	6.342690E-8	3.314180E-8	3.118350E-9	10.627992	20.339891	3.234400E-7	7.376760E-13	7.267110E-13	6.492570E-13	6.550190E-13	5.528510E-13	6.124810E-13	5.642460E-13	5.700290E-13
	169.174583	19.564800	3.649610E-7	6.308390E-8	3.281930E-8	3.142300E-9	10.444356	20.075709	3.257580E-7	7.612290E-13	7.816320E-13	7.254310E-13	6.546320E-13	6.621680E-13	7.053610E-13	6.825280E-13	6.829900E-13
	169.175266	19.726000	3.649080E-7	6.404390E-8	3.316830E-8	3.102990E-9	10.689142	20.639416	3.245480E-7	7.855350E-13	7.233140E-13	7.230880E-13	6.748310E-13	6.215760E-13	6.319390E-13	6.229730E-13	6.393670E-13
	169.175938	19.887300	3.636180E-7	6.334060E-8	3.349150E-8	3.125910E-9	10.714160	20.263091	3.245810E-7	7.619600E-13	7.509840E-13	7.215830E-13	6.950410E-13	5.941740E-13	6.043650E-13	6.013760E-13	6.298960E-13
	169.176609	19.618500	3.648000E-7	6.294440E-8	3.331180E-8	3.120420E-9	10.675422	20.171772	3.258240E-7	7.196160E-13	6.890210E-13	6.279830E-13	6.572550E-13	6.364750E-13	5.724910E-13	6.522450E-13	5.439610E-13
	169.177292	19.618500	3.638330E-7	6.368590E-8	3.377470E-8	3.116460E-9	10.837521	20.435334	3.229350E-7	7.011580E-13	7.673460E-13	6.005810E-13	5.690940E-13	4.244850E-13	4.051670E-13	3.437310E-13	4.377180E-13
	169.177963	19.726000	3.624890E-7	6.298410E-8	3.359740E-8	3.121830E-9	10.762085	20.175378	3.242790E-7	8.148930E-13	7.009320E-13	6.952020E-13	7.409220E-13	7.203470E-13	7.123380E-13	6.935040E-13	6.893970E-13
	169.178634	19.564800	3.651760E-7	6.295890E-8	3.297220E-8	3.136700E-9	10.511748	20.071700	3.233050E-7	8.494540E-13	8.614940E-13	7.728820E-13	6.062570E-13	6.519550E-13	6.135880E-13	5.992690E-13	6.716920E-13
	169.179317	19.511000	3.637250E-7	6.345610E-8	3.360580E-8	3.097510E-9	10.849295	20.486165	3.214570E-7	9.547940E-13	6.510950E-13	6.110300E-13	6.813030E-13	6.697030E-13	6.011940E-13	5.397250E-13	5.433800E-13
	169.179988	19.564800	3.639400E-7	6.276540E-8	3.347100E-8	3.139180E-9	10.662339	19.994202	3.250190E-7	6.824640E-13	6.162540E-13	7.428460E-13	5.909700E-13	5.960340E-13	4.364070E-13	4.768380E-13	5.441110E-13
	169.180671	19.672300	3.664660E-7	6.324670E-8	3.324870E-8	3.142100E-9	10.581681	20.128799	3.248510E-7	8.492070E-13	6.413660E-13	6.231990E-13	5.810590E-13	7.198310E-13	7.115100E-13	5.664820E-13	5.601390E-13
	169.181343	19.672300	3.652840E-7	6.346090E-8	3.332680E-8	3.087000E-9	10.795854	20.557467	3.222640E-7	8.140330E-13	8.372100E-13	7.846960E-13	7.530160E-13	7.572730E-13	7.128110E-13	5.955610E-13	5.124310E-13
	169.182014	19.833500	3.644240E-7	6.276980E-8	3.307640E-8	3.139210E-9	10.536536	19.995413	3.253210E-7	8.080880E-13	7.465440E-13	6.758420E-13	7.822880E-13	7.237220E-13	5.696640E-13	6.192210E-13	6.439570E-13
	169.182697	19.726000	3.658210E-7	6.322230E-8	3.274570E-8	3.127870E-9	10.469009	20.212573	3.244470E-7	6.917950E-13	6.216290E-13	6.010320E-13	6.962770E-13	6.902470E-13	6.463330E-13	6.863340E-13	6.207690E-13
	169.183368	19.618500	3.652840E-7	6.363100E-8	3.302390E-8	3.086510E-9	10.699431	20.615841	3.230030E-7	8.950880E-13	8.333620E-13	7.963820E-13	7.817610E-13	7.289040E-13	7.272910E-13	7.337200E-13	7.378480E-13
	169.184039	19.726000	3.643160E-7	6.269990E-8	3.265170E-8	3.128270E-9	10.437622	20.042995	3.252540E-7	8.954430E-13	8.917450E-13	8.048200E-13	6.165120E-13	6.853230E-13	6.412050E-13	6.069990E-13	5.398970E-13
	169.184722	19.779800	3.658750E-7	6.342310E-8	3.256210E-8	3.086680E-9	10.549231	20.547352	3.232050E-7	6.764110E-13	6.767450E-13	4.367720E-13	4.144340E-13	4.715160E-13	5.783610E-13	5.760600E-13	5.368440E-13
	169.185394	19.672300	3.645310E-7	6.323270E-8	3.310990E-8	3.090200E-9	10.714484	20.462333	3.217260E-7	6.987500E-13	5.982480E-13	6.726700E-13	6.402270E-13	6.858500E-13	6.532560E-13	5.284050E-13	5.203210E-13
	169.186076	19.672300	3.638860E-7	6.265090E-8	3.290870E-8	3.153790E-9	10.434652	19.865273	3.233050E-7	6.285090E-13	6.199520E-13	5.424340E-13	6.338310E-13	4.980370E-13	4.819870E-13	4.845560E-13	4.076080E-13
	169.186748	19.511000	3.654450E-7	6.346660E-8	3.276620E-8	3.113380E-9	10.524318	20.385112	3.227330E-7	5.756190E-13	5.534960E-13	4.529080E-13	4.318920E-13	9.602120E-13	6.831090E-13	5.176550E-13	4.304620E-13
	169.187419	19.564800	3.643700E-7	6.314980E-8	3.307100E-8	3.094870E-9	10.685748	20.404670	3.212560E-7	8.283950E-13	6.782600E-13	5.970870E-13	7.006420E-13	7.742580E-13	7.801920E-13	6.941380E-13	8.993670E-13
	169.188102	19.779800	3.653380E-7	6.241210E-8	3.259220E-8	3.115860E-9	10.460098	20.030457	3.231710E-7	9.419150E-13	8.518090E-13	8.292770E-13	8.346840E-13	7.914580E-13	6.976430E-13	7.337200E-13	7.760530E-13
	169.188773	19.779800	3.670040E-7	6.338390E-8	3.265680E-8	3.110490E-9	10.498925	20.377465	3.224660E-7	9.391520E-13	8.930780E-13	7.145740E-13	7.806430E-13	8.266540E-13	7.359340E-13	6.684350E-13	6.803670E-13
	169.189444	19.618500	3.657140E-7	6.337950E-8	3.326370E-8	3.114090E-9	10.681676	20.352495	3.229690E-7	9.433880E-13	8.154950E-13	7.398470E-13	8.136350E-13	6.574700E-13	7.492430E-13	6.139650E-13	6.096860E-13
	169.190127	19.564800	3.668960E-7	6.275800E-8	3.282200E-8	3.145420E-9	10.434854	19.952184	3.245820E-7	7.981010E-13	7.274200E-13	7.482750E-13	6.322070E-13	6.061820E-13	5.300390E-13	5.484760E-13	5.813380E-13
	169.190799	19.779800	3.671110E-7	6.369500E-8	3.312730E-8	3.091720E-9	10.714845	20.601801	3.239770E-7	7.022970E-13	6.842700E-13	5.966140E-13	5.675890E-13	5.363170E-13	5.507760E-13	5.936260E-13	6.396140E-13
	169.191481	19.779800	3.660360E-7	6.315880E-8	3.279010E-8	3.126110E-9	10.489106	20.203640	3.236070E-7	6.847960E-13	7.886090E-13	6.284340E-13	6.236400E-13	5.411230E-13	5.365000E-13	5.944860E-13	6.327340E-13
	169.192153	19.887300	3.658750E-7	6.280970E-8	3.198380E-8	3.120740E-9	10.248787	20.126541	3.242110E-7	8.017240E-13	8.082390E-13	6.255960E-13	7.472650E-13	7.549830E-13	7.947040E-13	7.616700E-13	6.850650E-13
	169.192824	19.672300	3.650690E-7	6.371400E-8	3.194420E-8	3.080790E-9	10.368834	20.681059	3.207850E-7	8.089700E-13	9.102990E-13	7.170570E-13	8.650740E-13	5.905080E-13	7.877920E-13	6.170820E-13	6.747340E-13
	169.193507	19.726000	3.638860E-7	6.351990E-8	3.227950E-8	3.137740E-9	10.287500	20.243838	3.222640E-7	8.328350E-13	7.552730E-13	5.837360E-13	6.050640E-13	6.818510E-13	5.648800E-13	5.886270E-13	5.475190E-13
	169.194178	19.511000	3.657680E-7	6.344670E-8	3.168620E-8	3.135650E-9	10.105146	20.233987	3.215920E-7	6.363570E-13	7.278500E-13	5.133550E-13	5.033690E-13	4.758490E-13	4.597450E-13	3.878600E-13	4.086720E-13
	169.194850	19.403500	3.639940E-7	6.371400E-8	3.199190E-8	3.121930E-9	10.247475	20.408529	3.189050E-7	6.049450E-13	5.499910E-13	5.061420E-13	5.141400E-13	4.712580E-13	4.583690E-13	4.575950E-13	4.906410E-13
	169.195532	19.457300	3.645310E-7	6.338450E-8	3.204660E-8	3.158570E-9	10.145920	20.067467	3.219960E-7	5.762110E-13	5.366510E-13	4.836640E-13	7.447280E-13	8.677510E-13	4.789120E-13	4.804500E-13	6.632750E-13
	169.196204	19.296000	3.668430E-7	6.366710E-8	3.180310E-8	3.154880E-9	10.080605	20.180514	3.216590E-7	6.394210E-13	7.212820E-13	5.364460E-13	5.127960E-13	4.547030E-13	6.621030E-13	4.538110E-13	6.152330E-13
	169.196887	19.457300	3.652840E-7	6.393880E-8	3.231500E-8	3.120720E-9	10.354982	20.488477	3.202150E-7	8.813500E-13	8.262880E-13	7.867170E-13	7.728710E-13	8.716530E-13	8.471970E-13	8.145060E-13	8.181180E-13
	169.197558	19.403500	3.651760E-7	6.322970E-8	3.235410E-8	3.138620E-9	10.308384	20.145701	3.225320E-7	9.225220E-13	8.635150E-13	8.267400E-13	7.830840E-13	8.273310E-13	8.579040E-13	7.923500E-13	7.740970E-13
	169.198229	19.511000	3.671650E-7	6.326740E-8	3.198150E-8	3.115350E-9	10.265781	20.308280	3.223650E-7	8.699980E-13	8.406390E-13	8.025740E-13	8.041750E-13	7.179280E-13	5.321790E-13	6.514500E-13	7.414600E-13
	169.198912	19.511000	3.660360E-7	6.364060E-8	3.265430E-8	3.112130E-9	10.492589	20.449210	3.209200E-7	7.291940E-13	6.589100E-13	5.996780E-13	5.988720E-13	6.267140E-13	5.449280E-13	6.160180E-13	6.126210E-13
	169.199583	19.672300	3.656060E-7	6.317350E-8	3.272020E-8	3.180970E-9	10.286233	19.859823	3.243470E-7	6.632750E-13	6.319710E-13	5.834560E-13	5.648260E-13	5.731250E-13	6.408720E-13	6.905800E-13	6.699940E-13
	169.200255	19.349800	3.672730E-7	6.380250E-8	3.250020E-8	3.130060E-9	10.383251	20.383795	3.240780E-7	7.277320E-13	6.820010E-13	7.233460E-13	6.571470E-13	6.468170E-13	6.490420E-13	7.084030E-13	6.391410E-13
	169.200938	19.672300	3.653910E-7	6.384780E-8	3.317440E-8	3.116000E-9	10.646470	20.490308	3.226000E-7	7.606590E-13	7.584550E-13	6.946330E-13	6.662960E-13	6.963630E-13	6.853980E-13	6.877310E-13	6.716280E-13
	169.201609	19.618500	3.644780E-7	6.298210E-8	3.297680E-8	3.130500E-9	10.534036	20.118863	3.249510E-7	8.156990E-13	7.783540E-13	7.095640E-13	7.007920E-13	6.834630E-13	6.250910E-13	5.492930E-13	5.709650E-13
	169.202292	19.672300	3.665740E-7	6.344210E-8	3.264800E-8	3.088660E-9	10.570280	20.540331	3.229370E-7	7.440500E-13	7.633040E-13	7.131440E-13	6.596520E-13	6.434090E-13	6.137820E-13	6.443330E-13	6.016020E-13
	169.202963	19.726000	3.648540E-7	6.298240E-8	3.286140E-8	3.107840E-9	10.573710	20.265651	3.214920E-7	8.489920E-13	8.263850E-13	7.964670E-13	5.559150E-13	6.469560E-13	5.851120E-13	5.222990E-13	5.927550E-13
	169.203634	19.779800	3.644780E-7	6.270000E-8	3.278170E-8	3.139500E-9	10.441695	19.971333	3.241790E-7	8.098840E-13	7.705380E-13	8.311470E-13	6.991150E-13	7.402130E-13	6.521920E-13	6.528040E-13	5.911850E-13
	169.204317	19.403500	3.647460E-7	6.365260E-8	3.294600E-8	3.113620E-9	10.581253	20.443278	3.219270E-7	7.561660E-13	6.455800E-13	5.134950E-13	7.285380E-13	7.175190E-13	5.282550E-13	5.083780E-13	4.596480E-13
	169.204988	19.726000	3.638860E-7	6.317300E-8	3.327150E-8	3.100690E-9	10.730354	20.373852	3.210210E-7	6.406680E-13	5.916260E-13	6.489990E-13	5.639660E-13	7.130040E-13	6.082460E-13	6.295840E-13	6.256610E-13
	169.205660	19.564800	3.651760E-7	6.263270E-8	3.301690E-8	3.111320E-9	10.611862	20.130588	3.228340E-7	6.994920E-13	6.220060E-13	5.851010E-13	5.988610E-13	5.070670E-13	5.036910E-13	5.075400E-13	5.912180E-13
	169.206343	19.457300	3.659290E-7	6.314570E-8	3.303730E-8	3.107230E-9	10.632396	20.322184	3.219950E-7	6.765730E-13	6.371310E-13	6.429140E-13	4.715590E-13	7.345150E-13	8.091420E-13	8.327060E-13	8.047560E-13
	169.207014	19.726000	3.661440E-7	6.273040E-8	3.340350E-8	3.092500E-9	10.801455	20.284689	3.214240E-7	9.418610E-13	9.121480E-13	9.089660E-13	8.171720E-13	8.716750E-13	8.362430E-13	8.003380E-13	7.933610E-13
	169.207697	19.672300	3.674340E-7	6.219810E-8	3.307800E-8	3.090190E-9	10.704196	20.127597	3.235740E-7	9.275320E-13	8.920570E-13	8.307060E-13	7.948870E-13	7.965210E-13	8.171610E-13	7.830080E-13	7.760100E-13
	169.208345	19.726000	3.673800E-7	6.288310E-8	3.350990E-8	3.082490E-9	10.871049	20.400099	3.219270E-7	9.003130E-13	8.522280E-13	7.196590E-13	7.387400E-13	6.751970E-13	6.370660E-13	5.915830E-13	5.495290E-13
	169.209016	19.672300	3.667350E-7	6.241740E-8	3.359270E-8	3.090650E-9	10.869138	20.195558	3.254220E-7	7.045550E-13	7.215400E-13	5.398220E-13	6.003120E-13	5.282440E-13	5.566780E-13	6.709290E-13	6.261340E-13
	169.209699	19.726000	3.687780E-7	6.281270E-8	3.325170E-8	3.082490E-9	10.787286	20.377260	3.253210E-7	7.114990E-13	6.421190E-13	6.188240E-13	5.822740E-13	5.933460E-13	6.873120E-13	6.633500E-13	6.702950E-13
	169.210370	19.941000	3.679180E-7	6.298920E-8	3.373680E-8	3.073070E-9	10.978207	20.497158	3.233400E-7	7.513390E-13	7.166160E-13	7.771280E-13	6.722510E-13	6.716490E-13	6.845810E-13	6.967610E-13	6.422910E-13
	169.211053	19.941000	3.669500E-7	6.214970E-8	3.343840E-8	3.073200E-9	10.880646	20.223122	3.265640E-7	8.396930E-13	8.054330E-13	7.328380E-13	7.280760E-13	6.891290E-13	6.874950E-13	5.913360E-13	6.134380E-13
	169.211725	19.726000	3.684010E-7	6.247450E-8	3.288620E-8	3.066730E-9	10.723539	20.371699	3.248840E-7	7.138430E-13	6.934930E-13	6.429040E-13	6.001080E-13	5.542380E-13	5.881110E-13	6.116640E-13	6.184260E-13
	169.212396	19.994800	3.675410E-7	6.258430E-8	3.337660E-8	3.055740E-9	10.922592	20.480898	3.229370E-7	7.271080E-13	7.228840E-13	7.147570E-13	6.906230E-13	6.211780E-13	6.533630E-13	6.628450E-13	6.542560E-13
	169.213079	19.887300	3.673260E-7	6.213490E-8	3.317680E-8	3.094100E-9	10.722601	20.081736	3.261600E-7	7.827180E-13	7.365790E-13	6.324870E-13	6.759170E-13	6.875480E-13	6.230910E-13	5.405310E-13	5.386500E-13
	169.213750	19.726000	3.686160E-7	6.282090E-8	3.295000E-8	3.042320E-9	10.830550	20.649011	3.247500E-7	7.654540E-13	7.021150E-13	7.469850E-13	6.392590E-13	7.585740E-13	6.851620E-13	5.447130E-13	6.014950E-13
	169.214421	19.726000	3.671110E-7	6.289240E-8	3.345860E-8	3.073590E-9	10.885837	20.462196	3.229020E-7	6.974170E-13	6.614900E-13	6.243810E-13	5.359950E-13	5.635040E-13	3.885260E-13	5.060780E-13	5.190420E-13
	169.215104	19.779800	3.665200E-7	6.242050E-8	3.320590E-8	3.079420E-9	10.783167	20.270213	3.247160E-7	7.816110E-13	6.950410E-13	8.175700E-13	5.711800E-13	5.934210E-13	5.544630E-13	6.216400E-13	5.918090E-13
	169.215775	19.726000	3.681330E-7	6.282590E-8	3.288190E-8	3.036580E-9	10.828597	20.689690	3.232040E-7	6.878390E-13	5.654180E-13	5.469810E-13	4.875120E-13	5.201820E-13	5.310070E-13	6.255320E-13	7.825680E-13
	169.216458	19.726000	3.684010E-7	6.253970E-8	3.302660E-8	3.056360E-9	10.805861	20.462151	3.229690E-7	8.886270E-13	8.387370E-13	8.442730E-13	8.367480E-13	8.309430E-13	8.315770E-13	8.250630E-13	8.019500E-13
	169.217130	19.726000	3.691540E-7	6.197600E-8	3.244070E-8	3.081220E-9	10.528524	20.114111	3.240440E-7	8.930240E-13	9.438180E-13	8.218700E-13	8.315120E-13	8.612150E-13	7.030280E-13	6.876770E-13	7.447280E-13
	169.217801	19.726000	3.698530E-7	6.296460E-8	3.280350E-8	3.060380E-9	10.718767	20.574112	3.242130E-7	8.989150E-13	8.947440E-13	8.519050E-13	8.160220E-13	8.028310E-13	8.143990E-13	6.999220E-13	5.199670E-13
	169.218484	19.887300	3.693150E-7	6.270700E-8	3.313570E-8	3.077920E-9	10.765614	20.373174	3.248170E-7	7.951780E-13	7.698180E-13	6.390440E-13	6.634790E-13	5.675250E-13	5.197620E-13	5.409400E-13	5.436920E-13
	169.219155	19.833500	3.706590E-7	6.254400E-8	3.294300E-8	3.116350E-9	10.571021	20.069633	3.270000E-7	6.805500E-13	6.586090E-13	6.065150E-13	5.558500E-13	5.562690E-13	5.544310E-13	6.666720E-13	6.545570E-13
	169.219826	19.726000	3.699600E-7	6.314840E-8	3.316570E-8	3.067230E-9	10.812916	20.588088	3.248840E-7	8.528840E-13	7.507480E-13	7.275060E-13	6.480530E-13	6.966860E-13	7.306560E-13	7.343320E-13	6.854310E-13
	169.220509	20.102300	3.685090E-7	6.243660E-8	3.308240E-8	3.082100E-9	10.733721	20.257811	3.259250E-7	7.460500E-13	6.603290E-13	6.516430E-13	6.375500E-13	6.301220E-13	6.644250E-13	7.314840E-13	7.493290E-13
	169.221181	20.156000	3.704980E-7	6.231830E-8	3.284890E-8	3.082380E-9	10.656992	20.217592	3.257920E-7	9.289830E-13	9.161690E-13	8.260520E-13	8.179250E-13	8.254500E-13	8.029180E-13	7.750640E-13	7.398360E-13
	169.221863	19.887300	3.688310E-7	6.291220E-8	3.333120E-8	3.041040E-9	10.960461	20.687725	3.237430E-7	9.045800E-13	8.946690E-13	8.201280E-13	8.437670E-13	8.032080E-13	7.521770E-13	5.489270E-13	6.057520E-13
	169.222535	19.994800	3.684010E-7	6.235620E-8	3.321900E-8	3.084630E-9	10.769201	20.215131	3.255230E-7	6.800450E-13	6.253700E-13	5.750170E-13	5.452510E-13	5.507330E-13	5.396820E-13	5.380050E-13	6.576200E-13
	169.223206	19.672300	3.706050E-7	6.243350E-8	3.281430E-8	3.095620E-9	10.600235	20.168335	3.240100E-7	9.354220E-13	8.961310E-13	7.495650E-13	9.347450E-13	9.030000E-13	7.691950E-13	4.082850E-13	4.100800E-13
	169.223889	19.726000	3.690460E-7	6.275000E-8	3.334510E-8	3.053700E-9	10.919573	20.548842	3.224990E-7	1.019010E-12	9.565460E-13	9.368950E-13	9.375180E-13	9.142450E-13	6.951270E-13	5.676860E-13	6.989540E-13
	169.224560	19.779800	3.696380E-7	6.236560E-8	3.362160E-8	3.076870E-9	10.927208	20.269170	3.256560E-7	6.612860E-13	5.008850E-13	5.467230E-13	5.187630E-13	6.207910E-13	6.084070E-13	5.447990E-13	7.820620E-13
	169.225231	19.618500	3.710890E-7	6.247490E-8	3.306820E-8	3.073810E-9	10.758049	20.324906	3.252530E-7	8.441440E-13	8.465950E-13	8.765550E-13	8.215800E-13	8.489380E-13	8.481750E-13	8.349960E-13	7.932100E-13
	169.225914	19.887300	3.711960E-7	6.281320E-8	3.351070E-8	3.028700E-9	11.064384	20.739327	3.242790E-7	9.425600E-13	8.949270E-13	8.583550E-13	8.115930E-13	8.448320E-13	8.430900E-13	8.451970E-13	8.452730E-13
	169.226586	19.726000	3.711960E-7	6.245880E-8	3.349580E-8	3.075440E-9	10.891385	20.308899	3.277400E-7	9.129550E-13	8.439070E-13	7.795680E-13	7.975960E-13	7.943610E-13	7.657980E-13	7.664750E-13	7.488020E-13
	169.227269	19.779800	3.730780E-7	6.281240E-8	3.312440E-8	3.062810E-9	10.815036	20.508096	3.267990E-7	8.022080E-13	7.787410E-13	6.819260E-13	6.509450E-13	6.229950E-13	5.785430E-13	5.422080E-13	5.280400E-13
	169.227940	19.833500	3.717340E-7	6.303580E-8	3.351330E-8	3.056680E-9	10.963954	20.622309	3.258250E-7	7.613470E-13	6.842270E-13	6.689400E-13	6.261340E-13	5.792310E-13	5.684170E-13	5.335760E-13	5.475400E-13
	169.228611	20.048500	3.715730E-7	6.244300E-8	3.323890E-8	3.103300E-9	10.710824	20.121484	3.287810E-7	6.753360E-13	6.568680E-13	5.687610E-13	5.444120E-13	5.449820E-13	5.269000E-13	6.780990E-13	6.881500E-13
	169.229294	19.941000	3.724860E-7	6.292930E-8	3.297550E-8	3.073990E-9	10.727263	20.471537	3.269670E-7	8.113890E-13	7.951880E-13	6.969870E-13	6.914180E-13	6.756480E-13	6.876130E-13	7.106180E-13	6.895910E-13
	169.229965	20.102300	3.709810E-7	6.263300E-8	3.329470E-8	3.044980E-9	10.934292	20.569265	3.254220E-7	8.295350E-13	8.003910E-13	7.082530E-13	7.238080E-13	7.322250E-13	7.237540E-13	7.172940E-13	7.263990E-13
	169.230637	20.048500	3.709810E-7	6.214200E-8	3.304240E-8	3.089340E-9	10.695618	20.114976	3.283780E-7	7.373210E-13	7.426640E-13	6.631890E-13	6.053430E-13	6.239080E-13	5.977430E-13	6.283270E-13	5.849070E-13
	169.231319	19.941000	3.714110E-7	6.289910E-8	3.289760E-8	3.067130E-9	10.725858	20.507478	3.262960E-7	8.924220E-13	8.426710E-13	7.987250E-13	8.462180E-13	8.209240E-13	7.430610E-13	7.565530E-13	7.871580E-13
	169.231991	20.156000	3.705510E-7	6.263900E-8	3.320130E-8	3.072340E-9	10.806519	20.388043	3.248510E-7	8.897130E-13	8.101740E-13	7.864910E-13	7.896200E-13	7.708290E-13	7.302150E-13	7.321180E-13	6.839690E-13
	169.232674	19.887300	3.699600E-7	6.217040E-8	3.277700E-8	3.064430E-9	10.695953	20.287753	3.264970E-7	8.169030E-13	7.605730E-13	6.750030E-13	7.059200E-13	5.531090E-13	6.513100E-13	5.685140E-13	5.006920E-13
	169.233345	19.941000	3.712500E-7	6.307450E-8	3.270610E-8	3.047020E-9	10.733799	20.700389	3.244140E-7	6.067080E-13	5.912070E-13	5.577850E-13	5.593330E-13	5.321360E-13	5.352960E-13	6.600180E-13	5.079590E-13
	169.234016	20.102300	3.701750E-7	6.247790E-8	3.246660E-8	3.082330E-9	10.533136	20.269699	3.232720E-7	6.643820E-13	5.532920E-13	7.259150E-13	4.462320E-13	8.043900E-13	4.505540E-13	7.587560E-13	5.977750E-13
	169.234699	19.833500	3.711960E-7	6.244300E-8	3.216090E-8	3.086830E-9	10.418747	20.228843	3.255230E-7	8.063140E-13	9.036990E-13	7.591220E-13	8.727070E-13	8.099270E-13	8.193110E-13	7.926400E-13	6.543850E-13
	169.235370	19.833500	3.715190E-7	6.316080E-8	3.218680E-8	3.059680E-9	10.519662	20.642943	3.239430E-7	9.351430E-13	9.276390E-13	8.741580E-13	8.369310E-13	8.284270E-13	8.401560E-13	8.072280E-13	7.927370E-13
	169.236042	19.994800	3.706590E-7	6.255880E-8	3.223330E-8	3.113240E-9	10.353619	20.094435	3.246160E-7	8.522920E-13	8.918310E-13	8.463690E-13	8.187630E-13	7.853950E-13	7.951560E-13	7.807190E-13	7.250980E-13
	169.236725	19.833500	3.731310E-7	6.258190E-8	3.187830E-8	3.103670E-9	10.271163	20.163838	3.266650E-7	8.609570E-13	8.053580E-13	7.314510E-13	7.327410E-13	7.345900E-13	6.641780E-13	5.935830E-13	5.228910E-13
	169.237396	19.941000	3.715730E-7	6.335200E-8	3.234160E-8	3.092820E-9	10.456994	20.483572	3.244810E-7	7.231200E-13	6.895050E-13	6.199420E-13	6.759280E-13	5.744690E-13	5.911960E-13	4.943600E-13	6.659950E-13
	169.238079	19.779800	3.704980E-7	6.288340E-8	3.235660E-8	3.112840E-9	10.394559	20.201295	3.272020E-7	6.716280E-13	6.303050E-13	5.795220E-13	5.578600E-13	5.824560E-13	5.375320E-13	7.038020E-13	7.028130E-13
	169.238750	19.833500	3.723250E-7	6.300070E-8	3.186620E-8	3.091080E-9	10.309083	20.381452	3.258920E-7	7.441900E-13	6.601470E-13	6.388720E-13	5.805000E-13	5.855950E-13	6.626410E-13	7.328170E-13	6.937190E-13
	169.239398	19.779800	3.699600E-7	6.326800E-8	3.245110E-8	3.087650E-9	10.509967	20.490664	3.231030E-7	6.900750E-13	6.408070E-13	5.954960E-13	6.557820E-13	7.586600E-13	5.331350E-13	5.671480E-13	5.877560E-13
	169.240081	19.672300	3.689930E-7	6.258680E-8	3.237120E-8	3.105970E-9	10.422251	20.150484	3.257920E-7	9.455700E-13	9.807440E-13	8.429940E-13	8.600540E-13	8.424020E-13	7.910170E-13	8.492180E-13	8.600000E-13
	169.240752	19.726000	3.708200E-7	6.329080E-8	3.222070E-8	3.103680E-9	10.381450	20.392180	3.237420E-7	9.233820E-13	9.414530E-13	6.699180E-13	8.183010E-13	8.020360E-13	7.446740E-13	8.037560E-13	7.716130E-13
	169.241435	20.048500	3.696910E-7	6.321490E-8	3.242520E-8	3.105840E-9	10.440074	20.353560	3.230370E-7	9.979440E-13	9.696720E-13	9.022910E-13	9.012260E-13	8.772320E-13	8.954540E-13	8.152370E-13	4.642600E-13
	169.242106	19.726000	3.707130E-7	6.278730E-8	3.199030E-8	3.130480E-9	10.218976	20.056764	3.245150E-7	5.858960E-13	8.349200E-13	9.172440E-13	9.227480E-13	9.248230E-13	9.099230E-13	6.875050E-13	7.707100E-13
	169.242778	19.726000	3.710890E-7	6.355020E-8	3.183510E-8	3.092680E-9	10.293693	20.548586	3.231380E-7	6.247250E-13	7.989830E-13	8.845850E-13	8.334480E-13	7.167130E-13	4.193680E-13	5.947540E-13	5.643210E-13
	169.243461	19.672300	3.709810E-7	6.336260E-8	3.203630E-8	3.095860E-9	10.348110	20.466882	3.224660E-7	9.294770E-13	8.733090E-13	8.616130E-13	8.740290E-13	8.463910E-13	8.608600E-13	7.904910E-13	8.330710E-13
	169.244132	19.726000	3.704980E-7	6.273640E-8	3.134360E-8	3.131920E-9	10.007791	20.031291	3.242790E-7	9.037740E-13	8.703200E-13	8.766630E-13	8.491320E-13	8.703950E-13	8.259330E-13	7.287530E-13	7.949300E-13
	169.244803	19.726000	3.720560E-7	6.354120E-8	3.126660E-8	3.080270E-9	10.150604	20.628451	3.225670E-7	9.194260E-13	8.724810E-13	8.283840E-13	8.271160E-13	7.742470E-13	8.174410E-13	7.745270E-13	7.920600E-13
	169.245486	19.726000	3.700680E-7	6.320950E-8	3.141600E-8	3.149340E-9	9.975423	20.070713	3.236750E-7	8.177740E-13	8.266000E-13	7.437920E-13	7.258720E-13	7.001900E-13	6.993950E-13	5.884550E-13	6.221560E-13
	169.246157	19.833500	3.718950E-7	6.317420E-8	3.092070E-8	3.160720E-9	9.782803	19.987281	3.251860E-7	8.011220E-13	7.942960E-13	7.519950E-13	5.648160E-13	6.278000E-13	5.740070E-13	5.332000E-13	5.124090E-13
	169.246840	19.833500	3.707130E-7	6.407350E-8	3.091280E-8	3.102010E-9	9.965410	20.655478	3.221960E-7	7.401050E-13	7.282260E-13	5.876490E-13	6.554270E-13	6.432050E-13	5.582040E-13	5.637300E-13	5.990970E-13
	169.247512	19.941000	3.685090E-7	6.367940E-8	3.070840E-8	3.157160E-9	9.726590	20.169836	3.229350E-7	8.671170E-13	7.450290E-13	6.889140E-13	7.935540E-13	7.694740E-13	7.849440E-13	7.827830E-13	8.336730E-13
	169.248183	19.457300	3.702830E-7	6.349910E-8	3.016040E-8	3.152770E-9	9.566318	20.140733	3.215920E-7	9.133420E-13	9.352930E-13	8.655470E-13	8.813710E-13	8.399840E-13	8.367590E-13	7.808590E-13	8.243850E-13
	169.248866	19.618500	3.684010E-7	6.382320E-8	3.016770E-8	3.104490E-9	9.717442	20.558353	3.181990E-7	9.110410E-13	9.450330E-13	8.822200E-13	8.634620E-13	8.360170E-13	8.457030E-13	7.905440E-13	7.989610E-13
	169.249537	19.511000	3.662510E-7	6.342350E-8	2.990100E-8	3.160630E-9	9.460456	20.066727	3.202480E-7	1.007010E-12	9.252740E-13	8.922290E-13	8.446810E-13	8.581510E-13	8.555820E-13	8.178060E-13	8.215470E-13
	169.250208	19.511000	3.691000E-7	6.357470E-8	2.924970E-8	3.146350E-9	9.296391	20.205858	3.200140E-7	9.276180E-13	8.469820E-13	8.462180E-13	8.166020E-13	8.053360E-13	7.673560E-13	7.774180E-13	7.711730E-13
	169.250891	19.457300	3.667350E-7	6.416930E-8	2.962200E-8	3.161880E-9	9.368477	20.294666	3.176620E-7	9.176200E-13	9.116430E-13	8.155490E-13	8.499170E-13	7.700550E-13	7.433730E-13	6.354220E-13	7.855450E-13
	169.251563	19.564800	3.665740E-7	6.407190E-8	2.965850E-8	3.182530E-9	9.319158	20.132379	3.220630E-7	8.063250E-13	8.031860E-13	7.376540E-13	6.523850E-13	6.746380E-13	5.793710E-13	5.379620E-13	5.129580E-13
	169.252245	19.403500	3.683480E-7	6.402490E-8	2.912810E-8	3.174140E-9	9.176690	20.170786	3.200140E-7	7.767410E-13	7.203680E-13	5.820590E-13	5.757270E-13	5.682880E-13	5.552270E-13	6.211350E-13	6.404960E-13
	169.252917	19.511000	3.662510E-7	6.448500E-8	2.958550E-8	3.144580E-9	9.408411	20.506713	3.186700E-7	7.121010E-13	6.887740E-13	6.392060E-13	6.056660E-13	6.677360E-13	6.525030E-13	7.043400E-13	6.861190E-13
	169.253588	19.564800	3.653380E-7	6.366880E-8	2.942330E-8	3.174200E-9	9.269517	20.058219	3.210880E-7	7.737530E-13	7.485010E-13	6.265100E-13	6.059450E-13	6.355940E-13	6.596200E-13	6.826460E-13	6.870000E-13
	169.254271	19.457300	3.667350E-7	6.421370E-8	2.920460E-8	3.163980E-9	9.230336	20.295229	3.187030E-7	8.458210E-13	7.879430E-13	7.466730E-13	7.196050E-13	6.906440E-13	7.250870E-13	6.706920E-13	6.955250E-13
	169.254942	19.564800	3.643700E-7	6.420560E-8	2.966060E-8	3.150260E-9	9.415286	20.381048	3.168220E-7	9.325410E-13	8.336950E-13	8.318570E-13	8.294160E-13	7.813850E-13	8.063140E-13	7.622610E-13	7.673350E-13
	169.255613	19.349800	3.634030E-7	6.350250E-8	2.937540E-8	3.182400E-9	9.230581	19.954280	3.194080E-7	9.073220E-13	9.060960E-13	8.184190E-13	8.319100E-13	7.919740E-13	7.925220E-13	7.901680E-13	6.705530E-13
	169.256296	19.296000	3.656060E-7	6.434810E-8	2.912210E-8	3.161060E-9	9.212764	20.356494	3.168890E-7	5.682020E-13	5.010790E-13	5.609670E-13	6.697890E-13	6.754870E-13	6.147060E-13	7.022330E-13	4.590460E-13
	169.256968	19.457300	3.633490E-7	6.424360E-8	2.958900E-8	3.140310E-9	9.422318	20.457726	3.159810E-7	6.938370E-13	5.578930E-13	4.992190E-13	4.349450E-13	3.916220E-13	5.265990E-13	6.653710E-13	7.716990E-13
	169.257639	19.134800	3.644240E-7	6.387410E-8	2.935390E-8	3.200570E-9	9.171460	19.957101	3.185020E-7	9.146530E-13	9.176850E-13	8.586890E-13	8.584310E-13	8.426600E-13	7.790310E-13	7.786550E-13	8.037340E-13
	169.258322	19.188500	3.654450E-7	6.421860E-8	2.904370E-8	3.148080E-9	9.225846	20.399291	3.166200E-7	9.336910E-13	8.998180E-13	8.536250E-13	8.484220E-13	8.423920E-13	8.716100E-13	8.177520E-13	7.858250E-13
	169.258993	19.242300	3.648540E-7	6.405610E-8	2.939070E-8	3.155410E-9	9.314384	20.300405	3.168220E-7	9.318320E-13	8.561520E-13	8.280940E-13	8.457890E-13	7.349240E-13	8.139150E-13	8.063900E-13	6.968040E-13
	169.259676	19.242300	3.655530E-7	6.343090E-8	2.899930E-8	3.164950E-9	9.162641	20.041675	3.177280E-7	8.753940E-13	8.503360E-13	7.520480E-13	7.463830E-13	6.718000E-13	7.381380E-13	6.807440E-13	6.892680E-13
	169.260347	19.296000	3.656600E-7	6.410450E-8	2.902600E-8	3.125850E-9	9.285794	20.507862	3.170910E-7	7.209490E-13	7.571980E-13	7.505330E-13	5.913470E-13	7.410300E-13	6.131800E-13	5.407030E-13	5.530440E-13
	169.261019	19.457300	3.649610E-7	6.408230E-8	2.939070E-8	3.164530E-9	9.287540	20.250179	3.178290E-7	7.546710E-13	6.442800E-13	5.604510E-13	5.407360E-13	5.161290E-13	5.447780E-13	6.235430E-13	6.370770E-13
	169.261701	19.457300	3.659290E-7	6.392610E-8	2.908640E-8	3.213120E-9	9.052385	19.895335	3.193410E-7	6.899560E-13	6.406350E-13	6.257360E-13	5.302760E-13	6.717140E-13	5.544100E-13	5.899060E-13	6.308960E-13
	169.262373	19.242300	3.648540E-7	6.456130E-8	2.937220E-8	3.143760E-9	9.343016	20.536332	3.165200E-7	8.259980E-13	7.386000E-13	8.146030E-13	7.447490E-13	6.558790E-13	7.374500E-13	5.763930E-13	5.887130E-13
	169.263044	19.242300	3.637790E-7	6.383300E-8	2.933160E-8	3.196610E-9	9.175846	19.968967	3.163850E-7	8.983780E-13	8.829190E-13	8.716530E-13	8.563240E-13	8.055730E-13	8.046480E-13	7.932850E-13	7.769890E-13
	169.263727	19.027300	3.649610E-7	6.373280E-8	2.912480E-8	3.174830E-9	9.173657	20.074398	3.167880E-7	9.557610E-13	9.093320E-13	8.871980E-13	8.425530E-13	8.668480E-13	8.846820E-13	8.474120E-13	8.185800E-13
	169.264398	19.188500	3.644240E-7	6.429830E-8	2.954530E-8	3.144990E-9	9.394402	20.444675	3.156790E-7	9.464730E-13	8.888530E-13	8.451650E-13	8.240200E-13	8.081850E-13	8.401020E-13	8.138720E-13	8.202790E-13
	169.265081	19.296000	3.637790E-7	6.402350E-8	2.983260E-8	3.211500E-9	9.289304	19.935700	3.185010E-7	9.169860E-13	9.396040E-13	8.773510E-13	8.458100E-13	8.140550E-13	7.975750E-13	6.193720E-13	7.581970E-13
	169.265752	19.296000	3.664130E-7	6.409370E-8	2.951300E-8	3.166660E-9	9.319914	20.240158	3.186350E-7	9.176850E-13	8.641710E-13	7.068550E-13	7.950380E-13	6.631890E-13	7.749240E-13	7.143270E-13	5.234280E-13
	169.266424	19.349800	3.659830E-7	6.451470E-8	3.002470E-8	3.140140E-9	9.561580	20.545167	3.171570E-7	7.499410E-13	7.915440E-13	6.477300E-13	7.077370E-13	5.563230E-13	5.225790E-13	5.482610E-13	6.047520E-13
	169.267106	19.242300	3.651230E-7	6.366310E-8	3.011810E-8	3.166940E-9	9.510158	20.102402	3.197120E-7	6.433660E-13	6.307240E-13	5.788440E-13	5.840800E-13	5.489920E-13	6.205970E-13	6.663390E-13	6.647260E-13
	169.267778	19.242300	3.664130E-7	6.363580E-8	2.988250E-8	3.130240E-9	9.546393	20.329368	3.196440E-7	8.021760E-13	7.270760E-13	7.325690E-13	6.788620E-13	6.606840E-13	6.852690E-13	6.790020E-13	6.852590E-13
	169.268449	19.296000	3.667890E-7	6.392240E-8	3.049700E-8	3.118160E-9	9.780447	20.500038	3.182990E-7	7.797300E-13	7.455880E-13	6.672740E-13	6.167270E-13	5.441110E-13	5.539800E-13	5.473470E-13	5.400480E-13
	169.269132	19.349800	3.653380E-7	6.328180E-8	3.053090E-8	3.123850E-9	9.773485	20.257631	3.216260E-7	7.159070E-13	6.564270E-13	5.813710E-13	5.568930E-13	5.727710E-13	5.622460E-13	5.721360E-13	5.860580E-13
	169.269803	19.242300	3.672730E-7	6.329520E-8	3.035050E-8	3.102590E-9	9.782311	20.400762	3.208190E-7	7.062100E-13	6.538360E-13	6.722510E-13	6.300570E-13	6.617810E-13	6.518260E-13	6.340030E-13	6.428500E-13
	169.270486	19.672300	3.670580E-7	6.348430E-8	3.131500E-8	3.076020E-9	10.180363	20.638455	3.206510E-7	7.503070E-13	6.983840E-13	6.554600E-13	6.390550E-13	6.191140E-13	6.748200E-13	6.689620E-13	6.746910E-13
	169.271157	19.672300	3.666810E-7	6.265750E-8	3.131260E-8	3.116110E-9	10.048618	20.107602	3.223980E-7	6.937400E-13	6.965250E-13	5.816500E-13	5.450790E-13	5.502600E-13	5.969260E-13	6.697570E-13	6.729070E-13
	169.271829	19.564800	3.680250E-7	6.316650E-8	3.131290E-8	3.061210E-9	10.228929	20.634488	3.212550E-7	6.749390E-13	8.350920E-13	6.433550E-13	7.322580E-13	7.788160E-13	7.178420E-13	7.418680E-13	7.387510E-13
	169.272512	19.511000	3.671650E-7	6.315410E-8	3.177560E-8	3.091250E-9	10.279207	20.429956	3.204500E-7	9.220490E-13	8.557220E-13	8.539690E-13	8.298030E-13	8.204610E-13	6.927840E-13	5.444340E-13	6.147920E-13
	169.273183	19.618500	3.670580E-7	6.261890E-8	3.142180E-8	3.113580E-9	10.091856	20.111544	3.221640E-7	8.691700E-13	7.884590E-13	8.757380E-13	7.884910E-13	8.561730E-13	8.245790E-13	7.795790E-13	7.955970E-13
	169.273854	19.457300	3.691000E-7	6.326220E-8	3.109840E-8	3.081310E-9	10.092590	20.530943	3.207520E-7	9.582550E-13	9.291980E-13	8.304380E-13	8.482500E-13	8.384250E-13	8.365870E-13	7.842980E-13	7.831380E-13
	169.274537	19.457300	3.680250E-7	6.312420E-8	3.147180E-8	3.076980E-9	10.228146	20.514985	3.202480E-7	9.413990E-13	8.693420E-13	8.670740E-13	8.328130E-13	8.708470E-13	7.985640E-13	7.392130E-13	5.384570E-13
	169.275208	19.511000	3.689930E-7	6.296150E-8	3.145680E-8	3.134570E-9	10.035443	20.086168	3.243470E-7	9.308100E-13	8.842090E-13	8.353610E-13	7.968870E-13	8.060890E-13	7.595730E-13	7.507690E-13	5.388540E-13
	169.275891	19.511000	3.708200E-7	6.343940E-8	3.161260E-8	3.074250E-9	10.283028	20.635732	3.231710E-7	7.703990E-13	6.798300E-13	6.460430E-13	6.050100E-13	5.561620E-13	5.601610E-13	6.044190E-13	6.398940E-13
	169.276563	19.833500	3.696910E-7	6.265260E-8	3.186390E-8	3.069500E-9	10.380811	20.411337	3.227340E-7	6.908810E-13	6.633820E-13	6.275200E-13	6.117290E-13	6.613290E-13	6.906120E-13	6.539980E-13	6.865160E-13
	169.277234	19.779800	3.700680E-7	6.221180E-8	3.154410E-8	3.088380E-9	10.213801	20.143829	3.247830E-7	7.892000E-13	7.940160E-13	7.049740E-13	7.399870E-13	6.910740E-13	7.037590E-13	6.706060E-13	6.747240E-13
	169.277917	19.511000	3.707130E-7	6.306100E-8	3.179670E-8	3.052350E-9	10.417121	20.659819	3.234400E-7	8.144740E-13	7.380090E-13	7.167560E-13	6.811200E-13	6.137820E-13	6.225320E-13	5.658580E-13	5.740280E-13
	169.278588	19.941000	3.699060E-7	6.233410E-8	3.168050E-8	3.045550E-9	10.402226	20.467272	3.227010E-7	7.177240E-13	6.622640E-13	6.021290E-13	6.230700E-13	5.742650E-13	5.708460E-13	5.682450E-13	5.943460E-13
	169.279259	19.887300	3.708740E-7	6.188860E-8	3.106330E-8	3.049420E-9	10.186626	20.295204	3.240780E-7	7.408900E-13	6.989330E-13	6.106970E-13	6.137170E-13	6.309820E-13	6.557930E-13	6.363250E-13	6.545460E-13
	169.279942	19.941000	3.701210E-7	6.279770E-8	3.147530E-8	3.049370E-9	10.321903	20.593664	3.228680E-7	7.466300E-13	7.973060E-13	6.814210E-13	6.773570E-13	6.480530E-13	6.964280E-13	7.257220E-13	6.902790E-13
	169.280613	20.048500	3.686160E-7	6.205360E-8	3.125190E-8	3.054760E-9	10.230558	20.313740	3.245820E-7	8.326200E-13	7.149610E-13	7.088980E-13	6.180170E-13	7.142620E-13	6.964280E-13	7.254850E-13	7.067050E-13
	169.281296	19.941000	3.709280E-7	6.217950E-8	3.064820E-8	3.083110E-9	9.940677	20.167785	3.230710E-7	7.074360E-13	6.962770E-13	6.043110E-13	5.856920E-13	5.621600E-13	5.952270E-13	5.987000E-13	6.418070E-13
	169.281968	19.672300	3.687240E-7	6.273640E-8	3.098540E-8	3.048320E-9	10.164746	20.580648	3.201470E-7	8.388010E-13	7.136710E-13	6.829800E-13	6.796040E-13	6.107610E-13	5.927120E-13	6.123200E-13	4.419110E-13
	169.282639	19.726000	3.676490E-7	6.220950E-8	3.093340E-8	3.060290E-9	10.107996	20.327975	3.220960E-7	7.250770E-13	6.355080E-13	6.708540E-13	5.352750E-13	7.085430E-13	5.944640E-13	7.116280E-13	7.929840E-13
	169.283322	19.618500	3.706050E-7	6.219240E-8	3.035360E-8	3.077900E-9	9.861789	20.206115	3.214910E-7	8.007250E-13	8.756090E-13	7.509520E-13	8.116460E-13	7.807290E-13	8.016170E-13	7.027170E-13	7.299680E-13
	169.283993	19.726000	3.693690E-7	6.258000E-8	3.074890E-8	3.036410E-9	10.126729	20.609865	3.194760E-7	9.609100E-13	8.974320E-13	8.504860E-13	4.988000E-13	5.809300E-13	6.316270E-13	5.290610E-13	4.671950E-13
	169.284664	19.564800	3.696910E-7	6.224440E-8	3.073610E-8	3.105450E-9	9.897471	20.043601	3.230370E-7	7.989400E-13	8.021440E-13	7.733330E-13	7.123270E-13	7.365580E-13	7.108540E-13	7.008250E-13	6.725520E-13
	169.285347	19.618500	3.723250E-7	6.268470E-8	3.056010E-8	3.079480E-9	9.923786	20.355612	3.233720E-7	8.289220E-13	8.659340E-13	7.961880E-13	7.789770E-13	7.050060E-13	7.543490E-13	7.105960E-13	5.184940E-13
	169.286019	19.833500	3.710350E-7	6.300760E-8	3.113570E-8	3.038330E-9	10.247636	20.737576	3.219950E-7	9.407860E-13	8.586890E-13	7.963060E-13	7.790200E-13	6.949010E-13	5.238370E-13	6.496220E-13	6.386570E-13
	169.286701	19.779800	3.704980E-7	6.228880E-8	3.095820E-8	3.087420E-9	10.027207	20.175033	3.245480E-7	7.167020E-13	7.262480E-13	6.849900E-13	6.279070E-13	6.656080E-13	6.904510E-13	7.058990E-13	6.911070E-13
	169.287373	19.779800	3.723250E-7	6.291590E-8	3.074730E-8	3.094440E-9	9.936305	20.331918	3.241780E-7	7.906520E-13	7.314620E-13	7.514030E-13	7.197120E-13	6.890000E-13	6.612110E-13	6.187910E-13	6.123310E-13
	169.288044	19.941000	3.706050E-7	6.296090E-8	3.104690E-8	3.056330E-9	10.158229	20.600164	3.225990E-7	7.299140E-13	6.741320E-13	6.372710E-13	6.025160E-13	6.176630E-13	5.775540E-13	5.510660E-13	5.176660E-13
	169.288727	19.726000	3.695300E-7	6.219730E-8	3.068720E-8	3.075260E-9	9.978734	20.225054	3.250190E-7	7.201750E-13	7.118860E-13	6.367220E-13	5.931850E-13	7.095430E-13	6.896880E-13	6.875160E-13	6.842270E-13
	169.289398	19.833500	3.715730E-7	6.303550E-8	3.053070E-8	3.077450E-9	9.920779	20.483030	3.245150E-7	7.673670E-13	7.519190E-13	7.289360E-13	6.788620E-13	5.812950E-13	6.311000E-13	6.220810E-13	6.425600E-13
	169.290069	19.994800	3.704440E-7	6.332750E-8	3.096530E-8	3.094530E-9	10.006463	20.464335	3.230020E-7	7.783430E-13	7.621000E-13	7.427930E-13	6.976860E-13	5.824670E-13	6.611790E-13	6.286600E-13	5.911850E-13
	169.290752	19.779800	3.689930E-7	6.249970E-8	3.062500E-8	3.094230E-9	9.897454	20.198789	3.252200E-7	7.573480E-13	6.833130E-13	5.904010E-13	7.321390E-13	6.354860E-13	5.970230E-13	5.549900E-13	6.086220E-13
	169.291424	19.672300	3.698530E-7	6.288030E-8	3.036740E-8	3.057460E-9	9.932231	20.566189	3.219280E-7	8.189670E-13	6.494500E-13	6.360130E-13	6.741430E-13	6.333680E-13	5.515820E-13	7.051460E-13	3.916110E-13
	169.292106	19.887300	3.682400E-7	6.282990E-8	3.078180E-8	3.063440E-9	10.048116	20.509591	3.213560E-7	7.585310E-13	6.843560E-13	6.110840E-13	7.586170E-13	6.688970E-13	8.577860E-13	6.333250E-13	7.001470E-13
	169.292778	19.564800	3.684550E-7	6.226920E-8	3.050670E-8	3.110600E-9	9.807336	20.018389	3.229350E-7	8.239010E-13	8.752010E-13	7.797400E-13	9.514610E-13	7.301510E-13	6.637690E-13	7.350530E-13	5.902390E-13
	169.293449	19.618500	3.703900E-7	6.287330E-8	3.065620E-8	3.040930E-9	10.081192	20.675681	3.206510E-7	9.000650E-13	7.065540E-13	6.682740E-13	5.848210E-13	8.796190E-13	5.334690E-13	5.343610E-13	5.128930E-13
	169.294132	19.941000	3.707660E-7	6.264620E-8	3.114230E-8	3.062610E-9	10.168549	20.455167	3.227010E-7	7.753870E-13	5.931420E-13	6.580500E-13	5.475830E-13	6.684460E-13	5.429180E-13	4.808370E-13	4.951990E-13
	169.294803	19.672300	3.718950E-7	6.231220E-8	3.093460E-8	3.093980E-9	9.998319	20.139820	3.240440E-7	5.642140E-13	7.241200E-13	7.185080E-13	7.278820E-13	5.354040E-13	5.752750E-13	4.727960E-13	5.359950E-13
	169.295475	19.833500	3.721640E-7	6.307580E-8	3.131340E-8	3.057200E-9	10.242509	20.631885	3.227000E-7	7.451680E-13	7.329240E-13	7.550690E-13	7.306880E-13	6.884190E-13	6.910100E-13	5.677610E-13	6.098040E-13
	169.296157	19.941000	3.716260E-7	6.252660E-8	3.140070E-8	3.062110E-9	10.254596	20.419449	3.248510E-7	7.699260E-13	7.937370E-13	7.677760E-13	7.602830E-13	7.735700E-13	5.209880E-13	5.173760E-13	6.673060E-13
	169.296829	20.048500	3.731850E-7	6.248920E-8	3.106110E-8	3.080350E-9	10.083627	20.286396	3.250190E-7	7.245820E-13	7.081560E-13	5.905730E-13	5.336190E-13	6.816140E-13	6.241130E-13	6.413230E-13	5.946580E-13
	169.297512	20.048500	3.723250E-7	6.299630E-8	3.145980E-8	3.049580E-9	10.316109	20.657369	3.239770E-7	8.113990E-13	6.851830E-13	6.959660E-13	6.707570E-13	5.844240E-13	5.784790E-13	6.666070E-13	4.736880E-13
	169.298183	19.833500	3.715730E-7	6.240940E-8	3.152760E-8	3.085390E-9	10.218352	20.227394	3.266980E-7	7.105100E-13	6.945040E-13	6.415170E-13	5.411230E-13	5.187630E-13	5.650840E-13	6.518910E-13	6.532240E-13
	169.298854	19.941000	3.736690E-7	6.272550E-8	3.141910E-8	3.084580E-9	10.185860	20.335183	3.273700E-7	7.394280E-13	6.964390E-13	6.250160E-13	5.938080E-13	5.825100E-13	6.027420E-13	5.824990E-13	5.514210E-13
	169.299537	19.887300	3.722710E-7	6.316190E-8	3.194560E-8	3.051930E-9	10.467344	20.695724	3.260260E-7	7.455550E-13	6.989430E-13	6.136640E-13	5.297600E-13	5.163330E-13	5.393380E-13	5.018530E-13	5.261690E-13
	169.300208	20.209800	3.710890E-7	6.230420E-8	3.175070E-8	3.073080E-9	10.331882	20.274187	3.275040E-7	6.477840E-13	7.538650E-13	6.607590E-13	7.504360E-13	7.762570E-13	6.357660E-13	6.168670E-13	5.859930E-13
	169.300880	19.941000	3.722710E-7	6.257320E-8	3.137820E-8	3.068450E-9	10.226075	20.392446	3.260930E-7	7.746990E-13	6.918270E-13	6.354650E-13	6.083210E-13	6.112770E-13	5.551410E-13	5.425520E-13	5.186230E-13
	169.301562	19.941000	3.709280E-7	6.265120E-8	3.155620E-8	3.034340E-9	10.399692	20.647390	3.230020E-7	7.195830E-13	7.433950E-13	6.946860E-13	7.348700E-13	6.747340E-13	8.043690E-13	7.088230E-13	7.815570E-13
	169.302234	19.941000	3.693150E-7	6.228540E-8	3.141740E-8	3.092230E-9	10.160111	20.142551	3.250520E-7	9.195440E-13	8.832850E-13	7.999500E-13	8.968400E-13	7.598960E-13	4.871790E-13	7.204220E-13	4.699150E-13
	169.302917	19.887300	3.722710E-7	6.273210E-8	3.126360E-8	3.064710E-9	10.201161	20.469180	3.241120E-7	8.234930E-13	6.087400E-13	5.471960E-13	5.269000E-13	5.234070E-13	5.101200E-13	5.123450E-13	5.275560E-13
	169.303588	19.779800	3.717340E-7	6.268040E-8	3.154740E-8	3.039250E-9	10.379995	20.623641	3.219620E-7	7.055870E-13	6.793890E-13	5.922280E-13	5.971730E-13	5.778660E-13	5.841230E-13	5.456270E-13	5.800480E-13
	169.304259	19.887300	3.707130E-7	6.219330E-8	3.147080E-8	3.085700E-9	10.198918	20.155329	3.248840E-7	7.213030E-13	6.946540E-13	6.273700E-13	5.944320E-13	5.746090E-13	5.576240E-13	5.792640E-13	5.462070E-13
	169.304942	19.672300	3.738300E-7	6.307180E-8	3.143150E-8	3.081920E-9	10.198675	20.465100	3.240780E-7	6.502140E-13	5.789200E-13	5.197950E-13	4.741390E-13	4.745910E-13	4.177660E-13	3.918160E-13	3.877090E-13
	169.305613	20.048500	3.729700E-7	6.306570E-8	3.170100E-8	3.063760E-9	10.347090	20.584413	3.232040E-7	7.221420E-13	7.081450E-13	6.550510E-13	5.564740E-13	5.049700E-13	6.760460E-13	5.770280E-13	5.315010E-13
	169.306285	19.887300	3.729160E-7	6.246840E-8	3.145500E-8	3.099290E-9	10.149099	20.155713	3.258250E-7	5.862190E-13	7.204000E-13	7.000180E-13	7.718390E-13	8.517440E-13	8.871870E-13	8.556460E-13	9.077950E-13
	169.306968	19.726000	3.750130E-7	6.293140E-8	3.112680E-8	3.054050E-9	10.191975	20.605884	3.239090E-7	9.634580E-13	8.783180E-13	8.774040E-13	8.701700E-13	8.248800E-13	8.315120E-13	8.042180E-13	7.846850E-13
	169.307639	19.887300	3.730240E-7	6.279220E-8	3.142480E-8	3.090990E-9	10.166581	20.314592	3.242790E-7	8.877460E-13	7.452650E-13	8.256430E-13	7.855130E-13	5.991730E-13	6.299390E-13	5.306090E-13	5.871220E-13
	169.308322	19.833500	3.739910E-7	6.262510E-8	3.119370E-8	3.099250E-9	10.064919	20.206534	3.274710E-7	6.853880E-13	7.089190E-13	6.677040E-13	5.646760E-13	5.162150E-13	5.106360E-13	6.900100E-13	6.909560E-13
	169.308993	19.941000	3.741530E-7	6.343530E-8	3.123940E-8	3.071950E-9	10.169241	20.649848	3.250850E-7	7.818040E-13	7.959510E-13	7.909740E-13	7.594120E-13	7.799450E-13	7.327310E-13	5.591400E-13	6.757450E-13
	169.309664	19.994800	3.729700E-7	6.293230E-8	3.130590E-8	3.083520E-9	10.152650	20.409240	3.240770E-7	7.871040E-13	8.508630E-13	8.655470E-13	7.988330E-13	7.686040E-13	6.310460E-13	6.801850E-13	5.337270E-13
	169.310347	19.994800	3.734000E-7	6.282080E-8	3.098310E-8	3.119190E-9	9.933060	20.140100	3.255900E-7	7.394600E-13	5.616870E-13	7.766770E-13	5.848210E-13	4.555420E-13	5.295990E-13	4.826860E-13	5.303400E-13
	169.311019	19.779800	3.730240E-7	6.346080E-8	3.101370E-8	3.075480E-9	10.084182	20.634438	3.225320E-7	6.601470E-13	6.963960E-13	6.944930E-13	7.892540E-13	7.396970E-13	8.133450E-13	6.907630E-13	7.937260E-13
	169.311690	19.887300	3.722180E-7	6.296730E-8	3.105300E-8	3.087440E-9	10.057847	20.394664	3.233050E-7	8.308890E-13	7.830940E-13	8.491100E-13	8.446710E-13	7.987460E-13	7.758920E-13	7.980590E-13	8.627740E-13
	169.312373	19.618500	3.743680E-7	6.288610E-8	3.064210E-8	3.126780E-9	9.799890	20.112096	3.244470E-7	9.238550E-13	8.022940E-13	8.375220E-13	8.667190E-13	8.402090E-13	8.217190E-13	7.515000E-13	7.379870E-13
	169.313044	19.887300	3.739380E-7	6.349110E-8	3.101810E-8	3.099940E-9	10.006032	20.481396	3.231380E-7	9.459460E-13	8.973670E-13	8.663000E-13	8.687290E-13	8.539690E-13	8.584310E-13	6.897200E-13	6.238440E-13
	169.313715	20.048500	3.735080E-7	6.305030E-8	3.118870E-8	3.138500E-9	9.937454	20.089310	3.256230E-7	9.417320E-13	8.306420E-13	8.308570E-13	8.267500E-13	7.895230E-13	6.742180E-13	7.259900E-13	5.479600E-13
	169.314398	19.833500	3.747980E-7	6.312860E-8	3.083770E-8	3.117720E-9	9.891106	20.248322	3.255560E-7	8.210960E-13	6.575020E-13	6.412700E-13	5.897020E-13	5.458310E-13	5.533240E-13	5.321680E-13	6.168130E-13
	169.315069	19.941000	3.727010E-7	6.334280E-8	3.108420E-8	3.059500E-9	10.159895	20.703644	3.231380E-7	7.743760E-13	7.247970E-13	5.969800E-13	6.152220E-13	5.781460E-13	5.772530E-13	6.547180E-13	6.634470E-13
	169.315752	19.887300	3.723790E-7	6.276140E-8	3.118600E-8	3.084760E-9	10.109701	20.345635	3.260940E-7	6.851510E-13	6.387650E-13	5.676110E-13	6.647580E-13	6.712190E-13	6.600500E-13	6.531810E-13	6.595550E-13
	169.316424	19.779800	3.745290E-7	6.262530E-8	3.069590E-8	3.074500E-9	9.984030	20.369263	3.250520E-7	7.969300E-13	8.314590E-13	8.009180E-13	7.765800E-13	7.515750E-13	7.654970E-13	7.515430E-13	7.974350E-13
	169.317095	19.833500	3.731310E-7	6.296960E-8	3.114960E-8	3.062350E-9	10.171796	20.562509	3.218620E-7	9.233280E-13	9.107290E-13	7.810950E-13	8.267180E-13	7.259580E-13	7.030820E-13	5.666860E-13	6.589320E-13
	169.317778	19.833500	3.717880E-7	6.249390E-8	3.114770E-8	3.109900E-9	10.015660	20.095148	3.255220E-7	8.490140E-13	8.915510E-13	7.065330E-13	7.349670E-13	5.930340E-13	7.800090E-13	4.828900E-13	6.390660E-13
	169.318449	19.833500	3.739910E-7	6.319000E-8	3.103960E-8	3.113700E-9	9.968719	20.294184	3.241780E-7	7.538540E-13	6.574810E-13	5.649450E-13	5.481100E-13	5.890350E-13	7.126280E-13	5.150110E-13	4.826530E-13
	169.319120	19.564800	3.726480E-7	6.360270E-8	3.153980E-8	3.086700E-9	10.217967	20.605404	3.222300E-7	7.666790E-13	7.173470E-13	7.323650E-13	5.558930E-13	5.531300E-13	5.604080E-13	5.782210E-13	5.413380E-13
	169.319803	19.833500	3.722180E-7	6.300960E-8	3.129280E-8	3.097740E-9	10.101816	20.340506	3.249180E-7	6.232420E-13	6.351960E-13	4.715590E-13	4.200130E-13	4.226580E-13	4.989610E-13	4.713340E-13	4.756340E-13
	169.320475	19.672300	3.742060E-7	6.327700E-8	3.081680E-8	3.101900E-9	9.934814	20.399433	3.233400E-7	9.503650E-13	8.609680E-13	7.799340E-13	8.535500E-13	8.038630E-13	8.809200E-13	8.575170E-13	8.617740E-13
	169.321157	19.833500	3.735080E-7	6.346820E-8	3.108260E-8	3.106850E-9	10.004538	20.428473	3.227680E-7	9.636410E-13	9.407330E-13	9.131270E-13	8.404460E-13	8.233750E-13	8.551840E-13	8.396610E-13	7.877060E-13
	169.321829	19.887300	3.739910E-7	6.277750E-8	3.062100E-8	3.123250E-9	9.804210	20.100056	3.256560E-7	9.067840E-13	8.912180E-13	7.922320E-13	7.782030E-13	8.441440E-13	8.231810E-13	7.795250E-13	7.322680E-13
	169.322500	19.833500	3.756580E-7	6.374930E-8	3.075260E-8	3.124340E-9	9.842911	20.404085	3.253540E-7	8.648380E-13	8.657620E-13	6.952880E-13	7.072320E-13	6.336370E-13	6.246070E-13	5.594510E-13	5.587100E-13
	169.323183	19.941000	3.745830E-7	6.374470E-8	3.116680E-8	3.123650E-9	9.977686	20.407120	3.251860E-7	7.453830E-13	7.321720E-13	6.072350E-13	6.470210E-13	5.705020E-13	5.852080E-13	5.287920E-13	6.361310E-13
	169.323854	19.887300	3.747440E-7	6.307320E-8	3.095620E-8	3.146090E-9	9.839579	20.048123	3.272690E-7	6.765940E-13	6.493750E-13	6.196620E-13	5.441860E-13	5.489810E-13	5.209990E-13	6.701330E-13	6.354000E-13
	169.324525	19.887300	3.750130E-7	6.356560E-8	3.100290E-8	3.070960E-9	10.095508	20.698935	3.252880E-7	6.480100E-13	6.493540E-13	5.799300E-13	6.766910E-13	5.335760E-13	6.480960E-13	6.596310E-13	6.709070E-13
	169.325208	19.994800	3.735610E-7	6.337410E-8	3.145770E-8	3.099370E-9	10.149708	20.447414	3.260270E-7	7.672060E-13	7.700760E-13	7.305810E-13	6.316380E-13	6.798940E-13	6.194580E-13	6.277250E-13	5.560110E-13
	169.325880	20.209800	3.745290E-7	6.290410E-8	3.103200E-8	3.118950E-9	9.949502	20.168358	3.278410E-7	6.974810E-13	6.646190E-13	6.240270E-13	6.361100E-13	6.006990E-13	5.899380E-13	5.922280E-13	6.094710E-13
	169.326562	20.102300	3.740990E-7	6.359080E-8	3.113700E-8	3.074350E-9	10.127995	20.684307	3.254890E-7	7.889750E-13	7.867390E-13	6.942350E-13	7.042650E-13	6.575450E-13	6.509340E-13	7.114890E-13	6.676290E-13
	169.327234	19.994800	3.729160E-7	6.362100E-8	3.157140E-8	3.138840E-9	10.058302	20.268953	3.273030E-7	7.679260E-13	7.909530E-13	8.540120E-13	8.179570E-13	7.901140E-13	7.904800E-13	7.798160E-13	6.064500E-13
	169.327905	20.048500	3.740450E-7	6.315310E-8	3.118340E-8	3.140470E-9	9.929533	20.109442	3.267320E-7	7.965640E-13	7.832880E-13	6.764540E-13	7.724840E-13	7.753970E-13	7.309350E-13	5.784570E-13	6.472140E-13
	169.328588	19.887300	3.722710E-7	6.369990E-8	3.148570E-8	3.094110E-9	10.176012	20.587471	3.242800E-7	6.654360E-13	5.340380E-13	4.946400E-13	5.744260E-13	6.699400E-13	5.097330E-13	4.629700E-13	4.787830E-13
	169.329259	19.726000	3.715190E-7	6.310000E-8	3.160330E-8	3.123130E-9	10.119111	20.204090	3.249510E-7	8.333400E-13	7.162720E-13	7.692910E-13	5.228370E-13	6.425270E-13	9.043010E-13	7.229800E-13	5.838860E-13
	169.329931	19.941000	3.742060E-7	6.294690E-8	3.120680E-8	3.106110E-9	10.046908	20.265509	3.251520E-7	6.883760E-13	6.027420E-13	5.427140E-13	5.328240E-13	5.822740E-13	8.075720E-13	7.217870E-13	8.829510E-13
	169.330613	19.941000	3.728090E-7	6.369830E-8	3.177790E-8	3.093300E-9	10.273139	20.592345	3.240450E-7	9.532560E-13	8.799950E-13	8.111950E-13	8.707390E-13	8.605910E-13	8.704710E-13	8.705890E-13	8.881760E-13
	169.331285	19.726000	3.726480E-7	6.315980E-8	3.179400E-8	3.132270E-9	10.150466	20.164226	3.270010E-7	9.825390E-13	8.769420E-13	8.476810E-13	8.863050E-13	7.768700E-13	8.298250E-13	7.951780E-13	8.037780E-13
	169.331968	19.887300	3.754430E-7	6.356630E-8	3.164590E-8	3.118900E-9	10.146494	20.381000	3.274380E-7	9.217480E-13	8.895520E-13	8.781680E-13	8.612470E-13	8.638060E-13	8.480250E-13	7.924150E-13	7.118330E-13
	169.332639	19.833500	3.736690E-7	6.398620E-8	3.219710E-8	3.073010E-9	10.477382	20.821995	3.252860E-7	8.332970E-13	7.893190E-13	7.799020E-13	7.597670E-13	6.763680E-13	6.877100E-13	5.899280E-13	6.485470E-13
	169.333310	19.833500	3.724860E-7	6.320860E-8	3.216500E-8	3.139810E-9	10.244250	20.131346	3.282770E-7	7.182830E-13	7.156810E-13	6.684780E-13	6.177060E-13	5.550220E-13	5.305340E-13	6.456340E-13	6.591790E-13
	169.333993	19.941000	3.745830E-7	6.385950E-8	3.201310E-8	3.120180E-9	10.260017	20.466608	3.283780E-7	7.350630E-13	7.055760E-13	6.174910E-13	6.074290E-13	5.440360E-13	5.799950E-13	6.764540E-13	6.342180E-13
	169.334664	19.779800	3.728630E-7	6.391800E-8	3.247120E-8	3.116100E-9	10.420461	20.512179	3.255900E-7	8.425310E-13	9.015920E-13	7.890610E-13	7.961990E-13	7.720430E-13	8.083030E-13	7.879530E-13	8.284490E-13
	169.335336	20.048500	3.705510E-7	6.295260E-8	3.221800E-8	3.098390E-9	10.398304	20.317842	3.274380E-7	9.176630E-13	9.406040E-13	8.678910E-13	8.752010E-13	8.861870E-13	8.295240E-13	8.386610E-13	8.277930E-13
	169.336019	19.833500	3.722180E-7	6.368520E-8	3.207320E-8	3.135040E-9	10.230555	20.313999	3.260590E-7	9.569440E-13	9.228980E-13	8.579680E-13	8.638590E-13	8.573340E-13	6.899030E-13	6.562010E-13	6.040960E-13
	169.336690	19.779800	3.717880E-7	6.383730E-8	3.259250E-8	3.127080E-9	10.422663	20.414348	3.245150E-7	6.892580E-13	6.829800E-13	7.704630E-13	6.895480E-13	4.583370E-13	4.313970E-13	4.857390E-13	4.860930E-13
	169.337373	19.726000	3.703900E-7	6.349840E-8	3.248940E-8	3.157280E-9	10.290313	20.111742	3.277050E-7	8.460470E-13	9.552560E-13	9.067730E-13	9.170830E-13	8.737820E-13	8.978940E-13	7.190570E-13	6.103530E-13
	169.338044	19.618500	3.726480E-7	6.412520E-8	3.243770E-8	3.116300E-9	10.409043	20.577351	3.250850E-7	6.782710E-13	8.474870E-13	9.042790E-13	8.677940E-13	8.734380E-13	7.461900E-13	5.122800E-13	4.705270E-13
	169.338715	19.618500	3.716260E-7	6.364760E-8	3.262580E-8	3.111160E-9	10.486699	20.457836	3.234050E-7	6.205110E-13	9.417540E-13	8.994850E-13	8.834890E-13	8.708470E-13	8.340600E-13	7.856420E-13	6.401950E-13
	169.339398	19.779800	3.718950E-7	6.311850E-8	3.213940E-8	3.143340E-9	10.224602	20.080074	3.259590E-7	9.623190E-13	9.345190E-13	8.623650E-13	8.855850E-13	8.705240E-13	8.533460E-13	8.254710E-13	8.739210E-13
	169.340069	19.672300	3.738840E-7	6.380140E-8	3.206410E-8	3.101780E-9	10.337322	20.569286	3.250850E-7	9.220810E-13	8.737390E-13	8.322110E-13	7.981660E-13	7.817830E-13	7.771170E-13	8.159360E-13	8.133770E-13
	169.340729	19.779800	3.721640E-7	6.340070E-8	3.230240E-8	3.134210E-9	10.306393	20.228606	3.264640E-7	9.028170E-13	7.588960E-13	7.777090E-13	7.733550E-13	7.324190E-13	7.615940E-13	7.553810E-13	8.210420E-13
	169.341400	19.941000	3.743680E-7	6.349080E-8	3.184910E-8	3.123620E-9	10.196215	20.326032	3.272370E-7	8.930240E-13	8.676860E-13	8.316200E-13	7.586810E-13	7.353860E-13	7.183580E-13	6.030430E-13	6.296700E-13
	169.342072	19.887300	3.729160E-7	6.388110E-8	3.216530E-8	3.081420E-9	10.438467	20.731059	3.245150E-7	8.058090E-13	7.468020E-13	6.878920E-13	7.478770E-13	7.441580E-13	5.501960E-13	5.471530E-13	5.318350E-13
	169.342755	19.887300	3.725940E-7	6.319530E-8	3.224720E-8	3.135830E-9	10.283466	20.152655	3.277060E-7	8.669770E-13	8.120330E-13	7.093920E-13	7.107900E-13	6.215970E-13	6.385070E-13	6.063210E-13	5.307920E-13
	169.343426	19.887300	3.732390E-7	6.331400E-8	3.179370E-8	3.112280E-9	10.215565	20.343285	3.260940E-7	9.469350E-13	9.112240E-13	8.870470E-13	8.547220E-13	8.163760E-13	8.279440E-13	8.196340E-13	6.951920E-13
	169.344097	19.887300	3.714650E-7	6.358880E-8	3.232920E-8	3.073620E-9	10.518281	20.688569	3.239430E-7	9.163840E-13	9.130190E-13	8.302010E-13	8.595060E-13	8.259120E-13	8.414670E-13	8.145600E-13	8.162480E-13
	169.344780	19.833500	3.706050E-7	6.286730E-8	3.218160E-8	3.084410E-9	10.433632	20.382277	3.252880E-7	9.356260E-13	8.723630E-13	8.673100E-13	8.310070E-13	8.169780E-13	7.749240E-13	7.757630E-13	7.613790E-13
	169.345451	19.672300	3.725400E-7	6.351130E-8	3.193720E-8	3.111980E-9	10.262662	20.408647	3.248500E-7	9.138040E-13	8.676760E-13	8.338450E-13	7.959300E-13	7.773000E-13	8.222780E-13	8.178710E-13	7.967040E-13
	169.346134	19.887300	3.728090E-7	6.371510E-8	3.250120E-8	3.080470E-9	10.550728	20.683565	3.245820E-7	9.309930E-13	8.768560E-13	8.739210E-13	8.624510E-13	8.329960E-13	8.301580E-13	8.112810E-13	8.120660E-13
	169.346806	19.941000	3.724330E-7	6.306570E-8	3.238630E-8	3.104620E-9	10.431647	20.313501	3.275710E-7	9.360130E-13	8.941740E-13	8.640310E-13	8.647950E-13	8.194190E-13	8.242780E-13	8.139580E-13	7.872440E-13
	169.347477	19.887300	3.747980E-7	6.357710E-8	3.214510E-8	3.086300E-9	10.415417	20.599780	3.271340E-7	9.433340E-13	8.826930E-13	8.288460E-13	8.122590E-13	8.224070E-13	7.314080E-13	6.739170E-13	7.880930E-13
	169.348160	19.833500	3.733460E-7	6.361090E-8	3.275040E-8	3.082330E-9	10.625209	20.637278	3.262950E-7	8.924220E-13	8.147420E-13	7.160040E-13	7.149500E-13	6.331000E-13	5.515610E-13	5.860470E-13	5.072600E-13
	169.348831	19.887300	3.736690E-7	6.277450E-8	3.239370E-8	3.111920E-9	10.409554	20.172273	3.286470E-7	7.011690E-13	6.293910E-13	6.421940E-13	6.066760E-13	5.668470E-13	5.509480E-13	6.477520E-13	6.556420E-13
	169.349502	19.833500	3.749590E-7	6.378800E-8	3.250190E-8	3.107530E-9	10.459078	20.526914	3.282430E-7	8.358130E-13	7.352350E-13	7.445990E-13	7.184870E-13	6.931060E-13	7.269790E-13	6.434950E-13	6.364540E-13
	169.350185	19.941000	3.736690E-7	6.339320E-8	3.276320E-8	3.101780E-9	10.562709	20.437684	3.272690E-7	8.351780E-13	7.923180E-13	7.098120E-13	7.647870E-13	7.499410E-13	7.590790E-13	6.840440E-13	7.002230E-13
	169.350856	20.102300	3.734540E-7	6.299830E-8	3.274030E-8	3.136320E-9	10.439081	20.086694	3.290490E-7	9.471290E-13	8.842410E-13	8.354150E-13	8.699650E-13	8.331790E-13	8.342970E-13	8.287500E-13	8.287390E-13
	169.351539	20.102300	3.743680E-7	6.360630E-8	3.275860E-8	3.094580E-9	10.585798	20.554098	3.273710E-7	9.481390E-13	8.969260E-13	8.770710E-13	8.750180E-13	8.246860E-13	8.077550E-13	8.139360E-13	8.034440E-13
	169.352211	20.048500	3.731850E-7	6.326660E-8	3.306690E-8	3.100720E-9	10.664265	20.403842	3.258920E-7	9.216410E-13	8.854350E-13	8.830590E-13	8.239880E-13	8.296210E-13	7.692380E-13	8.257400E-13	8.418330E-13
	169.352882	20.102300	3.739910E-7	6.292060E-8	3.286530E-8	3.112580E-9	10.558861	20.214934	3.277060E-7	9.244250E-13	8.983240E-13	8.563880E-13	7.451040E-13	4.972410E-13	5.474760E-13	9.611680E-13	9.542020E-13
	169.353565	19.887300	3.749590E-7	6.344840E-8	3.312810E-8	3.055570E-9	10.841872	20.764833	3.266980E-7	9.373140E-13	9.089340E-13	8.872940E-13	8.648380E-13	8.722010E-13	8.362860E-13	8.301900E-13	8.305670E-13
	169.354236	20.102300	3.739380E-7	6.332870E-8	3.371790E-8	3.110410E-9	10.840339	20.360242	3.279750E-7	9.105040E-13	8.742870E-13	7.930810E-13	7.939950E-13	7.776230E-13	8.077440E-13	8.165700E-13	7.905440E-13
	169.354907	19.994800	3.752810E-7	6.296160E-8	3.347870E-8	3.118760E-9	10.734619	20.188023	3.296210E-7	8.856390E-13	8.581620E-13	7.572730E-13	7.902220E-13	7.739350E-13	7.194870E-13	7.469740E-13	7.624010E-13
	169.355590	20.156000	3.758730E-7	6.346850E-8	3.401930E-8	3.080160E-9	11.044654	20.605585	3.285460E-7	9.142880E-13	8.899390E-13	8.243420E-13	8.354470E-13	7.701620E-13	8.035630E-13	7.473720E-13	7.249150E-13
	169.356262	20.048500	3.748510E-7	6.322660E-8	3.431290E-8	3.116230E-9	11.011029	20.289452	3.312330E-7	8.827360E-13	8.510130E-13	8.231060E-13	7.249260E-13	7.144450E-13	6.819050E-13	6.181250E-13	5.897880E-13
	169.356933	20.156000	3.764640E-7	6.346310E-8	3.411740E-8	3.134200E-9	10.885521	20.248580	3.329130E-7	8.735340E-13	7.908020E-13	7.520910E-13	7.648300E-13	7.408250E-13	6.840010E-13	5.210850E-13	4.905120E-13
	169.357616	19.941000	3.754430E-7	6.409780E-8	3.479460E-8	3.104740E-9	11.206929	20.645143	3.313680E-7	8.080560E-13	6.933100E-13	6.853880E-13	6.374860E-13	6.644360E-13	5.872400E-13	5.106890E-13	5.404780E-13
	169.358287	20.156000	3.740990E-7	6.301330E-8	3.476600E-8	3.128940E-9	11.111111	20.138865	3.337190E-7	7.450290E-13	6.069990E-13	5.763500E-13	5.757700E-13	6.439680E-13	6.269610E-13	6.377440E-13	6.566530E-13
	169.358970	20.102300	3.750130E-7	6.328780E-8	3.456450E-8	3.106580E-9	11.126222	20.372178	3.330470E-7	7.580040E-13	7.101880E-13	6.391730E-13	6.012260E-13	5.768770E-13	6.029460E-13	5.220840E-13	5.924320E-13
	169.359641	20.102300	3.740450E-7	6.353910E-8	3.501000E-8	3.058130E-9	11.448173	20.777109	3.308640E-7	7.414700E-13	7.478880E-13	6.978040E-13	6.316160E-13	6.041820E-13	6.069130E-13	6.178880E-13	6.092350E-13
	169.360312	20.209800	3.727010E-7	6.287930E-8	3.522020E-8	3.121530E-9	11.282993	20.143744	3.332820E-7	8.383280E-13	7.599930E-13	7.575630E-13	7.251950E-13	6.654570E-13	6.500950E-13	5.769200E-13	6.033440E-13
	169.360995	20.263500	3.746360E-7	6.360700E-8	3.499380E-8	3.104070E-9	11.273522	20.491484	3.325100E-7	9.116540E-13	8.689330E-13	8.448960E-13	8.172900E-13	8.302760E-13	8.134420E-13	8.062290E-13	7.696570E-13
	169.361667	20.156000	3.722180E-7	6.357840E-8	3.527910E-8	3.081850E-9	11.447377	20.629946	3.298220E-7	8.938630E-13	9.014840E-13	8.377690E-13	8.349100E-13	8.526690E-13	7.492100E-13	7.870500E-13	6.509230E-13
	169.362350	20.209800	3.716800E-7	6.303450E-8	3.493840E-8	3.144410E-9	11.111274	20.046527	3.316360E-7	7.261620E-13	5.407570E-13	6.312720E-13	5.522380E-13	5.070240E-13	5.133120E-13	6.080310E-13	4.975530E-13
	169.363021	20.048500	3.728630E-7	6.341170E-8	3.464680E-8	3.116960E-9	11.115574	20.344085	3.300570E-7	6.692410E-13	5.557530E-13	5.335760E-13	5.069480E-13	4.793320E-13	5.020360E-13	5.076260E-13	4.953280E-13
	169.363692	20.102300	3.722180E-7	6.333840E-8	3.510540E-8	3.083120E-9	11.386323	20.543605	3.282770E-7	9.302300E-13	8.758030E-13	8.110980E-13	7.450390E-13	7.639700E-13	7.849000E-13	8.022830E-13	8.066480E-13
	169.364375	19.887300	3.727550E-7	6.272470E-8	3.502640E-8	3.123810E-9	11.212718	20.079550	3.315020E-7	9.323150E-13	9.172650E-13	8.650100E-13	8.246970E-13	8.293630E-13	8.106570E-13	8.406180E-13	8.134520E-13
	169.365046	19.887300	3.743140E-7	6.345610E-8	3.507240E-8	3.115650E-9	11.256848	20.366890	3.310650E-7	9.589220E-13	9.165670E-13	8.750720E-13	8.809090E-13	8.292660E-13	8.462940E-13	8.297710E-13	7.867170E-13
	169.365718	20.424800	3.741530E-7	6.358340E-8	3.578400E-8	3.113030E-9	11.494910	20.424924	3.312670E-7	9.501500E-13	9.078480E-13	8.125500E-13	8.597310E-13	7.972420E-13	7.457810E-13	6.918910E-13	6.074070E-13
	169.366400	20.209800	3.738300E-7	6.299010E-8	3.530400E-8	3.126570E-9	11.291607	20.146710	3.335850E-7	8.182150E-13	7.951340E-13	7.995630E-13	7.467700E-13	6.750030E-13	6.214140E-13	5.641710E-13	5.858430E-13
	169.367072	20.209800	3.743140E-7	6.355970E-8	3.503290E-8	3.073210E-9	11.399449	20.681860	3.318380E-7	7.136060E-13	8.127860E-13	6.332720E-13	6.881070E-13	6.612110E-13	5.162900E-13	6.585130E-13	6.807970E-13
	169.367743	20.263500	3.730780E-7	6.337810E-8	3.548560E-8	3.108440E-9	11.415887	20.389038	3.321410E-7	7.043940E-13	6.658010E-13	6.253600E-13	6.045370E-13	5.650630E-13	5.677400E-13	6.915800E-13	7.012220E-13
	169.368426	20.209800	3.734000E-7	6.307010E-8	3.512420E-8	3.145830E-9	11.165320	20.048795	3.334830E-7	8.623220E-13	8.323190E-13	7.475230E-13	7.954250E-13	7.853950E-13	7.542840E-13	7.347190E-13	7.909100E-13
	169.369097	20.102300	3.736150E-7	6.358420E-8	3.501630E-8	3.074810E-9	11.388118	20.679066	3.299560E-7	9.144270E-13	8.487130E-13	8.107220E-13	8.405960E-13	8.186660E-13	8.113780E-13	7.744080E-13	8.215370E-13
	169.369780	20.048500	3.720560E-7	6.330020E-8	3.557370E-8	3.104820E-9	11.457572	20.387720	3.312000E-7	9.536330E-13	8.976680E-13	8.269220E-13	8.442300E-13	8.168600E-13	7.882870E-13	6.947510E-13	7.198410E-13
	169.370451	20.156000	3.733460E-7	6.301760E-8	3.507610E-8	3.122260E-9	11.234202	20.183329	3.319050E-7	8.629350E-13	6.773680E-13	4.614330E-13	7.895230E-13	6.256930E-13	6.457850E-13	6.293050E-13	5.708360E-13
	169.371123	20.102300	3.738300E-7	6.380760E-8	3.544530E-8	3.084390E-9	11.491835	20.687267	3.295530E-7	9.639630E-13	9.386790E-13	8.662670E-13	8.555280E-13	8.571410E-13	4.433410E-13	5.333290E-13	6.484400E-13
	169.371806	19.941000	3.724330E-7	6.323000E-8	3.563740E-8	3.106630E-9	11.471401	20.353245	3.310660E-7	5.743290E-13	5.209340E-13	4.727740E-13	4.313440E-13	4.466300E-13	5.180750E-13	6.232850E-13	6.473970E-13
	169.372477	20.048500	3.745830E-7	6.313770E-8	3.509060E-8	3.123890E-9	11.232982	20.211243	3.316360E-7	9.126430E-13	8.982060E-13	8.878210E-13	8.841020E-13	8.630530E-13	8.409080E-13	8.099270E-13	8.295130E-13
	169.373148	20.048500	3.744210E-7	6.364790E-8	3.551480E-8	3.087580E-9	11.502471	20.614170	3.297890E-7	9.777660E-13	9.143410E-13	8.688900E-13	8.526040E-13	8.264490E-13	8.012940E-13	8.593010E-13	8.321470E-13
	169.373831	19.887300	3.738840E-7	6.326930E-8	3.546150E-8	3.118790E-9	11.370275	20.286489	3.330150E-7	8.722660E-13	8.722010E-13	8.229120E-13	8.460900E-13	7.288930E-13	7.658940E-13	7.786870E-13	7.528980E-13
	169.374502	20.156000	3.756040E-7	6.320910E-8	3.504950E-8	3.133580E-9	11.185130	20.171529	3.328790E-7	9.206090E-13	8.125600E-13	7.882220E-13	8.030680E-13	6.504820E-13	6.936650E-13	6.639310E-13	6.628450E-13
	169.375185	20.209800	3.751740E-7	6.395830E-8	3.578490E-8	3.112490E-9	11.497194	20.548917	3.320060E-7	7.515860E-13	7.724300E-13	6.997390E-13	6.750570E-13	6.441290E-13	5.434980E-13	5.288570E-13	5.443370E-13
	169.375856	20.263500	3.736690E-7	6.340300E-8	3.584740E-8	3.139360E-9	11.418697	20.196155	3.345930E-7	7.707100E-13	7.551340E-13	7.112310E-13	6.812170E-13	6.262300E-13	5.159680E-13	6.587490E-13	6.365610E-13
	169.376528	20.209800	3.749050E-7	6.369740E-8	3.537810E-8	3.125130E-9	11.320521	20.382320	3.334840E-7	7.028670E-13	7.159930E-13	6.637910E-13	5.791450E-13	5.703950E-13	5.418970E-13	6.249400E-13	7.041140E-13
	169.377211	20.048500	3.729700E-7	6.394090E-8	3.588640E-8	3.115080E-9	11.520218	20.526247	3.309300E-7	7.006420E-13	6.443120E-13	7.075760E-13	8.421120E-13	8.472940E-13	5.418970E-13	6.283370E-13	5.938080E-13
	169.377882	20.102300	3.724860E-7	6.298810E-8	3.550410E-8	3.121820E-9	11.372885	20.176724	3.321740E-7	9.871830E-13	8.990440E-13	8.602800E-13	8.439180E-13	8.475520E-13	8.739970E-13	8.534210E-13	8.411010E-13
	169.378553	20.102300	3.730780E-7	6.343090E-8	3.519740E-8	3.106140E-9	11.331556	20.421134	3.310660E-7	9.426030E-13	9.278650E-13	8.637950E-13	8.674930E-13	8.863050E-13	8.666540E-13	8.276100E-13	8.392850E-13
	169.379236	19.941000	3.731850E-7	6.356790E-8	3.584940E-8	3.119900E-9	11.490561	20.374980	3.291170E-7	5.583330E-13	9.577610E-13	7.039740E-13	4.556060E-13	3.559540E-13	8.212680E-13	6.918380E-13	8.110340E-13
	169.379907	19.941000	3.726480E-7	6.301710E-8	3.571640E-8	3.145060E-9	11.356349	20.036851	3.318710E-7	5.420790E-13	5.318670E-13	4.730750E-13	4.614760E-13	7.154230E-13	7.973490E-13	7.802570E-13	6.934720E-13
	169.380590	19.994800	3.742060E-7	6.358850E-8	3.550110E-8	3.102020E-9	11.444510	20.499062	3.308980E-7	9.423560E-13	9.042360E-13	8.980870E-13	8.689010E-13	8.491860E-13	8.379300E-13	7.933070E-13	8.389840E-13
	169.381262	20.102300	3.740450E-7	6.375100E-8	3.600200E-8	3.114730E-9	11.558626	20.467585	3.305270E-7	9.478490E-13	9.043550E-13	8.835210E-13	8.817260E-13	8.671600E-13	8.733730E-13	8.101200E-13	8.221390E-13
	169.381933	20.102300	3.739380E-7	6.359070E-8	3.602650E-8	3.170270E-9	11.363859	20.058449	3.335180E-7	9.589750E-13	8.874990E-13	8.429720E-13	8.729000E-13	8.517330E-13	8.727710E-13	7.830510E-13	8.127320E-13
	169.382616	20.048500	3.757650E-7	6.398050E-8	3.564220E-8	3.119020E-9	11.427371	20.513014	3.322410E-7	9.401310E-13	8.288790E-13	8.019500E-13	8.014990E-13	7.585090E-13	7.014370E-13	7.484360E-13	7.611320E-13
	169.383287	20.317300	3.747440E-7	6.383370E-8	3.611530E-8	3.144030E-9	11.486945	20.303146	3.320400E-7	8.159790E-13	7.642390E-13	6.836140E-13	7.268610E-13	6.422800E-13	6.513530E-13	6.784540E-13	6.995450E-13
	169.383958	20.156000	3.747980E-7	6.333210E-8	3.587960E-8	3.146580E-9	11.402729	20.127281	3.338880E-7	8.161080E-13	7.340640E-13	7.044370E-13	7.614010E-13	6.889780E-13	7.175090E-13	5.307380E-13	5.282760E-13
	169.384641	20.263500	3.755500E-7	6.429360E-8	3.619150E-8	3.123790E-9	11.585766	20.581921	3.325440E-7	7.335800E-13	7.420080E-13	7.023510E-13	5.963020E-13	5.572150E-13	5.580430E-13	5.786720E-13	5.900030E-13
	169.385289	20.156000	3.736690E-7	6.344430E-8	3.627450E-8	3.136320E-9	11.565944	20.228899	3.345250E-7	8.290610E-13	7.889420E-13	6.793350E-13	7.341710E-13	7.205510E-13	5.937650E-13	5.434230E-13	5.050130E-13
	169.385972	20.156000	3.742600E-7	6.334820E-8	3.559240E-8	3.159170E-9	11.266377	20.052166	3.324760E-7	8.286850E-13	7.797940E-13	8.546140E-13	8.332650E-13	7.078230E-13	7.904470E-13	7.964780E-13	7.924040E-13
	169.386644	20.317300	3.733460E-7	6.387710E-8	3.596910E-8	3.123340E-9	11.516229	20.451536	3.304600E-7	9.134490E-13	8.851770E-13	8.384350E-13	8.289000E-13	8.222570E-13	8.226010E-13	8.332330E-13	7.846100E-13
	169.387315	20.209800	3.725400E-7	6.305570E-8	3.553170E-8	3.138690E-9	11.320551	20.089815	3.314690E-7	9.263810E-13	9.027640E-13	8.722230E-13	8.093350E-13	8.112060E-13	8.455630E-13	7.939090E-13	7.602400E-13
	169.387998	19.941000	3.745290E-7	6.364390E-8	3.521450E-8	3.125470E-9	11.266945	20.362985	3.314690E-7	8.352970E-13	8.293300E-13	8.067770E-13	7.562300E-13	7.304410E-13	7.967150E-13	7.721190E-13	7.597990E-13
	169.388669	20.263500	3.738840E-7	6.371780E-8	3.579300E-8	3.102250E-9	11.537755	20.539222	3.304600E-7	7.901890E-13	8.486590E-13	8.208480E-13	8.037560E-13	7.437920E-13	6.919450E-13	7.261300E-13	7.558650E-13
	169.389352	20.156000	3.740450E-7	6.340640E-8	3.585950E-8	3.157540E-9	11.356784	20.080949	3.341900E-7	9.205980E-13	8.522390E-13	8.280080E-13	7.714090E-13	7.365040E-13	6.928480E-13	5.154730E-13	5.634290E-13
	169.390023	20.209800	3.757650E-7	6.409090E-8	3.537780E-8	3.123800E-9	11.325245	20.516967	3.330140E-7	7.036630E-13	7.479310E-13	6.891820E-13	7.541340E-13	6.470850E-13	5.580110E-13	5.316520E-13	5.043360E-13
	169.390694	20.263500	3.740990E-7	6.393340E-8	3.576280E-8	3.116450E-9	11.475493	20.514817	3.309650E-7	7.268070E-13	7.092100E-13	5.637840E-13	5.302440E-13	5.743620E-13	5.301470E-13	6.247360E-13	6.490960E-13
	169.391377	20.209800	3.734000E-7	6.315640E-8	3.553810E-8	3.146270E-9	11.295312	20.073420	3.340220E-7	6.856350E-13	6.392270E-13	6.508050E-13	5.523460E-13	5.912390E-13	6.520200E-13	6.716920E-13	6.518480E-13
	169.392049	20.209800	3.744210E-7	6.404630E-8	3.552060E-8	3.118010E-9	11.392074	20.540762	3.326780E-7	7.134450E-13	6.614580E-13	6.483320E-13	6.154910E-13	6.755300E-13	5.768660E-13	5.659980E-13	5.792640E-13
	169.392720	20.156000	3.723250E-7	6.404030E-8	3.612030E-8	3.111860E-9	11.607302	20.579428	3.318720E-7	7.767090E-13	7.658410E-13	6.426670E-13	7.156380E-13	7.046300E-13	6.392060E-13	6.435380E-13	6.315730E-13
	169.393403	19.941000	3.723250E-7	6.337440E-8	3.582220E-8	3.165400E-9	11.316800	20.020977	3.336520E-7	8.938730E-13	8.145380E-13	6.905260E-13	6.257790E-13	8.034550E-13	7.958650E-13	7.673560E-13	7.353000E-13
	169.394074	20.209800	3.735080E-7	6.461240E-8	3.593070E-8	3.140840E-9	11.439838	20.571694	3.328790E-7	9.052360E-13	8.954110E-13	8.440690E-13	8.417360E-13	8.246430E-13	8.189030E-13	7.966400E-13	7.995850E-13
	169.394757	20.048500	3.719490E-7	6.400430E-8	3.621900E-8	3.150620E-9	11.495833	20.314827	3.313680E-7	8.958190E-13	9.048490E-13	8.469600E-13	8.295020E-13	8.320820E-13	8.208810E-13	7.777520E-13	8.116250E-13
	169.395428	20.156000	3.736690E-7	6.366970E-8	3.560520E-8	3.176820E-9	11.207812	20.041960	3.323080E-7	9.502790E-13	8.898100E-13	8.580220E-13	8.438970E-13	8.584840E-13	8.308460E-13	7.990480E-13	7.935000E-13
	169.396100	19.994800	3.736150E-7	6.415680E-8	3.565890E-8	3.105470E-9	11.482610	20.659288	3.313010E-7	9.350140E-13	9.055690E-13	8.623870E-13	8.507980E-13	8.594630E-13	8.458530E-13	7.956080E-13	7.806110E-13
	169.396782	20.156000	3.733460E-7	6.408660E-8	3.598980E-8	3.168130E-9	11.359951	20.228526	3.318720E-7	9.506660E-13	8.851010E-13	8.498410E-13	7.796550E-13	7.302690E-13	7.167780E-13	7.352030E-13	7.326980E-13
	169.397454	20.102300	3.749050E-7	6.384380E-8	3.561000E-8	3.165330E-9	11.250012	20.169714	3.338880E-7	8.520990E-13	8.649560E-13	7.969400E-13	7.205400E-13	7.171000E-13	6.996210E-13	7.001690E-13	6.332180E-13
	169.398125	20.102300	3.749050E-7	6.447230E-8	3.594710E-8	3.117590E-9	11.530413	20.680173	3.320730E-7	7.585840E-13	6.948150E-13	7.680230E-13	7.686790E-13	6.784430E-13	6.840010E-13	5.459170E-13	5.732650E-13
	169.398808	20.209800	3.734000E-7	6.400870E-8	3.577080E-8	3.170400E-9	11.282740	20.189471	3.338540E-7	7.437710E-13	6.613510E-13	6.357440E-13	6.891930E-13	5.536360E-13	6.183720E-13	5.386180E-13	5.909700E-13
	169.399479	20.263500	3.748510E-7	6.395860E-8	3.507210E-8	3.189840E-9	10.994940	20.050724	3.344580E-7	6.494610E-13	6.532240E-13	6.022150E-13	5.710180E-13	5.173220E-13	5.338450E-13	6.336050E-13	6.592330E-13
	169.400150	20.424800	3.734000E-7	6.439570E-8	3.601110E-8	3.120920E-9	11.538617	20.633563	3.319730E-7	6.803570E-13	6.361530E-13	5.981300E-13	5.302010E-13	5.945720E-13	6.478920E-13	6.678440E-13	6.694020E-13
